LabVIEW Measurement,
Writer_Version,2
Reader_Version,2
Separator,Comma
Decimal_Separator,.
Multi_Headings,No
X_Columns,One
Time_Pref,Absolute
Operator,localuser
Date,2024/07/15
Time,10:18:28.6095378999996847986
***End_of_Header***,
,
Channels,1,
Samples,5000,
Date,2024/07/15,
Time,10:18:28.6095378999996847986,
Y_Unit_Label,Volts,
X_Dimension,Time,
X0,0.0000000000000000E+0,
Delta_X,0.001000,
***End_of_Header***,,
X_Value,Voltage,Comment
0.000000,-0.213973
0.001000,-0.143454
0.002000,0.038341
0.003000,0.175172
0.004000,0.269952
0.005000,0.287743
0.006000,0.265747
0.007000,0.169997
0.008000,0.023137
0.009000,-0.140220
0.010000,-0.233058
0.011000,-0.285138
0.012000,-0.320721
0.013000,-0.332043
0.014000,-0.322985
0.015000,-0.292902
0.016000,-0.245674
0.017000,-0.326543
0.018000,-0.300989
0.019000,-0.293872
0.020000,-0.288373
0.021000,-0.281903
0.022000,-0.275434
0.023000,-0.266700
0.024000,-0.256349
0.025000,-0.244056
0.026000,-0.232411
0.027000,-0.226265
0.028000,-0.222060
0.029000,-0.218178
0.030000,-0.214943
0.031000,-0.213973
0.032000,-0.213326
0.033000,-0.214620
0.034000,-0.216884
0.035000,-0.224001
0.036000,-0.234028
0.037000,-0.240822
0.038000,-0.243733
0.039000,-0.242439
0.040000,-0.237263
0.041000,-0.227559
0.042000,-0.217531
0.043000,-0.208150
0.044000,-0.203945
0.045000,-0.200063
0.046000,-0.197475
0.047000,-0.194888
0.048000,-0.193917
0.049000,-0.194888
0.050000,-0.196505
0.051000,-0.200063
0.052000,-0.211061
0.053000,-0.219795
0.054000,-0.226588
0.055000,-0.228853
0.056000,-0.227882
0.057000,-0.221089
0.058000,-0.211708
0.059000,-0.201034
0.060000,-0.194888
0.061000,-0.190682
0.062000,-0.187771
0.063000,-0.185183
0.064000,-0.183242
0.065000,-0.183889
0.066000,-0.184860
0.067000,0.338853
0.068000,0.349204
0.069000,0.351145
0.070000,0.346293
0.071000,0.325914
0.072000,0.305534
0.073000,0.242456
0.074000,0.139590
0.075000,-0.017945
0.076000,-0.167392
0.077000,-0.242439
0.078000,-0.285462
0.079000,-0.315222
0.080000,-0.321368
0.081000,-0.308105
0.082000,-0.273816
0.083000,-0.222383
0.084000,-0.158981
0.085000,-0.023767
0.086000,0.143148
0.087000,0.257013
0.088000,0.291301
0.089000,0.283861
0.090000,0.212049
0.091000,0.064219
0.092000,-0.083611
0.093000,-0.212355
0.094000,-0.267670
0.095000,-0.308429
0.096000,-0.328161
0.097000,-0.322985
0.098000,-0.299048
0.099000,-0.261524
0.100000,-0.210415
0.101000,-0.139573
0.102000,0.043193
0.103000,0.178407
0.104000,0.270922
0.105000,0.286773
0.106000,0.264129
0.107000,0.166762
0.108000,0.018285
0.109000,-0.144425
0.110000,-0.234999
0.111000,-0.286109
0.112000,-0.321691
0.113000,-0.331072
0.114000,-0.322662
0.115000,-0.293225
0.116000,-0.243409
0.117000,-0.320397
0.118000,-0.300018
0.119000,-0.293549
0.120000,-0.287403
0.121000,-0.281903
0.122000,-0.275434
0.123000,-0.266376
0.124000,-0.256025
0.125000,-0.243409
0.126000,-0.231764
0.127000,-0.226265
0.128000,-0.222060
0.129000,-0.218501
0.130000,-0.214943
0.131000,-0.213649
0.132000,-0.213326
0.133000,-0.214296
0.134000,-0.216884
0.135000,-0.224648
0.136000,-0.234028
0.137000,-0.241468
0.138000,-0.243086
0.139000,-0.242115
0.140000,-0.236940
0.141000,-0.226912
0.142000,-0.216561
0.143000,-0.207827
0.144000,-0.203298
0.145000,-0.200063
0.146000,-0.197152
0.147000,-0.195211
0.148000,-0.194564
0.149000,-0.194564
0.150000,-0.197152
0.151000,-0.200063
0.152000,-0.211061
0.153000,-0.220119
0.154000,-0.226588
0.155000,-0.228853
0.156000,-0.227882
0.157000,-0.222060
0.158000,-0.212355
0.159000,-0.201034
0.160000,-0.194241
0.161000,-0.191006
0.162000,-0.187124
0.163000,-0.185183
0.164000,-0.183566
0.165000,-0.183566
0.166000,-0.184860
0.167000,0.335942
0.168000,0.350175
0.169000,0.349851
0.170000,0.346940
0.171000,0.327855
0.172000,0.304888
0.173000,0.239868
0.174000,0.134414
0.175000,-0.022473
0.176000,-0.170950
0.177000,-0.243409
0.178000,-0.287403
0.179000,-0.314575
0.180000,-0.320721
0.181000,-0.306488
0.182000,-0.271876
0.183000,-0.221089
0.184000,-0.157040
0.185000,-0.016327
0.186000,0.145089
0.187000,0.258307
0.188000,0.292272
0.189000,0.282567
0.190000,0.209138
0.191000,0.059690
0.192000,-0.087169
0.193000,-0.214943
0.194000,-0.268317
0.195000,-0.305841
0.196000,-0.326543
0.197000,-0.326220
0.198000,-0.299371
0.199000,-0.259260
0.200000,-0.209121
0.201000,-0.139249
0.202000,0.048369
0.203000,0.182289
0.204000,0.272863
0.205000,0.287420
0.206000,0.261865
0.207000,0.162880
0.208000,0.014727
0.209000,-0.146042
0.210000,-0.236940
0.211000,-0.288696
0.212000,-0.322662
0.213000,-0.330425
0.214000,-0.323309
0.215000,-0.294196
0.216000,-0.241145
0.217000,-0.316192
0.218000,-0.297430
0.219000,-0.292255
0.220000,-0.287403
0.221000,-0.281256
0.222000,-0.275110
0.223000,-0.266053
0.224000,-0.256025
0.225000,-0.243409
0.226000,-0.232088
0.227000,-0.225942
0.228000,-0.221736
0.229000,-0.218501
0.230000,-0.214943
0.231000,-0.213326
0.232000,-0.213973
0.233000,-0.214296
0.234000,-0.216884
0.235000,-0.224648
0.236000,-0.234352
0.237000,-0.240822
0.238000,-0.242762
0.239000,-0.242115
0.240000,-0.236940
0.241000,-0.226912
0.242000,-0.215914
0.243000,-0.207827
0.244000,-0.203298
0.245000,-0.199416
0.246000,-0.197152
0.247000,-0.194564
0.248000,-0.193917
0.249000,-0.194888
0.250000,-0.196828
0.251000,-0.199093
0.252000,-0.212355
0.253000,-0.219472
0.254000,-0.226912
0.255000,-0.228529
0.256000,-0.227882
0.257000,-0.221089
0.258000,-0.211385
0.259000,-0.200710
0.260000,-0.194888
0.261000,-0.190359
0.262000,-0.187448
0.263000,-0.184860
0.264000,-0.182919
0.265000,-0.183242
0.266000,-0.184536
0.267000,0.333030
0.268000,0.350175
0.269000,0.350498
0.270000,0.344675
0.271000,0.327208
0.272000,0.301653
0.273000,0.239545
0.274000,0.132797
0.275000,-0.022150
0.276000,-0.173538
0.277000,-0.245997
0.278000,-0.287079
0.279000,-0.314898
0.280000,-0.319427
0.281000,-0.305194
0.282000,-0.271552
0.283000,-0.219795
0.284000,-0.155100
0.285000,-0.012122
0.286000,0.148000
0.287000,0.258954
0.288000,0.292595
0.289000,0.282567
0.290000,0.205256
0.291000,0.056456
0.292000,-0.091051
0.293000,-0.214943
0.294000,-0.268317
0.295000,-0.308752
0.296000,-0.326543
0.297000,-0.324926
0.298000,-0.300018
0.299000,-0.260230
0.300000,-0.209768
0.301000,-0.134397
0.302000,0.049663
0.303000,0.188759
0.304000,0.275127
0.305000,0.285479
0.306000,0.257336
0.307000,0.164174
0.308000,0.013109
0.309000,-0.150247
0.310000,-0.237263
0.311000,-0.286756
0.312000,-0.320397
0.313000,-0.331072
0.314000,-0.322015
0.315000,-0.291608
0.316000,-0.242439
0.317000,-0.312634
0.318000,-0.295813
0.319000,-0.291284
0.320000,-0.286756
0.321000,-0.281256
0.322000,-0.274463
0.323000,-0.265729
0.324000,-0.255702
0.325000,-0.243086
0.326000,-0.231441
0.327000,-0.225618
0.328000,-0.221413
0.329000,-0.217531
0.330000,-0.215267
0.331000,-0.213326
0.332000,-0.213002
0.333000,-0.214620
0.334000,-0.216561
0.335000,-0.224648
0.336000,-0.234352
0.337000,-0.240822
0.338000,-0.243409
0.339000,-0.242762
0.340000,-0.236293
0.341000,-0.226265
0.342000,-0.216237
0.343000,-0.208150
0.344000,-0.203298
0.345000,-0.200063
0.346000,-0.196828
0.347000,-0.194888
0.348000,-0.194564
0.349000,-0.195211
0.350000,-0.196505
0.351000,-0.200387
0.352000,-0.212032
0.353000,-0.220766
0.354000,-0.226588
0.355000,-0.228529
0.356000,-0.227235
0.357000,-0.220766
0.358000,-0.211061
0.359000,-0.200387
0.360000,-0.194241
0.361000,-0.190682
0.362000,-0.187124
0.363000,-0.184536
0.364000,-0.182919
0.365000,-0.182919
0.366000,-0.184860
0.367000,0.330766
0.368000,0.350498
0.369000,0.349851
0.370000,0.343382
0.371000,0.326561
0.372000,0.306181
0.373000,0.241162
0.374000,0.126004
0.375000,-0.026678
0.376000,-0.173538
0.377000,-0.245350
0.378000,-0.289020
0.379000,-0.316839
0.380000,-0.320397
0.381000,-0.303576
0.382000,-0.269935
0.383000,-0.217531
0.384000,-0.152835
0.385000,-0.007593
0.386000,0.151558
0.387000,0.261541
0.388000,0.290978
0.389000,0.280950
0.390000,0.203315
0.391000,0.052250
0.392000,-0.095903
0.393000,-0.214620
0.394000,-0.271876
0.395000,-0.309399
0.396000,-0.327514
0.397000,-0.324926
0.398000,-0.299371
0.399000,-0.258613
0.400000,-0.207827
0.401000,-0.131162
0.402000,0.055162
0.403000,0.187141
0.404000,0.275451
0.405000,0.287420
0.406000,0.255072
0.407000,0.158028
0.408000,0.010845
0.409000,-0.154129
0.410000,-0.237910
0.411000,-0.290314
0.412000,-0.322015
0.413000,-0.329778
0.414000,-0.322338
0.415000,-0.291608
0.416000,-0.240498
0.417000,-0.309076
0.418000,-0.295166
0.419000,-0.290961
0.420000,-0.286432
0.421000,-0.281256
0.422000,-0.274140
0.423000,-0.265406
0.424000,-0.254408
0.425000,-0.242439
0.426000,-0.231764
0.427000,-0.224971
0.428000,-0.221736
0.429000,-0.217531
0.430000,-0.214620
0.431000,-0.212679
0.432000,-0.213326
0.433000,-0.214296
0.434000,-0.216884
0.435000,-0.225295
0.436000,-0.234352
0.437000,-0.241145
0.438000,-0.243086
0.439000,-0.242439
0.440000,-0.236293
0.441000,-0.225942
0.442000,-0.215914
0.443000,-0.207503
0.444000,-0.203298
0.445000,-0.199740
0.446000,-0.196828
0.447000,-0.194888
0.448000,-0.194564
0.449000,-0.194888
0.450000,-0.197152
0.451000,-0.200710
0.452000,-0.212355
0.453000,-0.220766
0.454000,-0.227235
0.455000,-0.228529
0.456000,-0.226912
0.457000,-0.220442
0.458000,-0.211385
0.459000,-0.200063
0.460000,-0.193917
0.461000,-0.190682
0.462000,-0.186801
0.463000,-0.184536
0.464000,-0.183242
0.465000,-0.183889
0.466000,-0.185183
0.467000,0.331089
0.468000,0.351145
0.469000,0.349204
0.470000,0.345322
0.471000,0.326561
0.472000,0.304241
0.473000,0.236957
0.474000,0.120828
0.475000,-0.033795
0.476000,-0.179361
0.477000,-0.245027
0.478000,-0.291284
0.479000,-0.314575
0.480000,-0.320074
0.481000,-0.303253
0.482000,-0.268964
0.483000,-0.217855
0.484000,-0.151865
0.485000,-0.000153
0.486000,0.154470
0.487000,0.261865
0.488000,0.292595
0.489000,0.281274
0.490000,0.201051
0.491000,0.050310
0.492000,-0.099785
0.493000,-0.217855
0.494000,-0.270258
0.495000,-0.310370
0.496000,-0.327514
0.497000,-0.322338
0.498000,-0.299048
0.499000,-0.257319
0.500000,-0.206533
0.501000,-0.123399
0.502000,0.057103
0.503000,0.191346
0.504000,0.274804
0.505000,0.286773
0.506000,0.250220
0.507000,0.156411
0.508000,0.005023
0.509000,-0.155100
0.510000,-0.242762
0.511000,-0.292578
0.512000,-0.323956
0.513000,-0.330749
0.514000,-0.322985
0.515000,-0.290314
0.516000,-0.382182
0.517000,-0.306488
0.518000,-0.293872
0.519000,-0.289990
0.520000,-0.285462
0.521000,-0.279962
0.522000,-0.274140
0.523000,-0.265082
0.524000,-0.253761
0.525000,-0.242115
0.526000,-0.231117
0.527000,-0.225618
0.528000,-0.221413
0.529000,-0.217208
0.530000,-0.214620
0.531000,-0.213002
0.532000,-0.213002
0.533000,-0.214943
0.534000,-0.216561
0.535000,-0.225942
0.536000,-0.234999
0.537000,-0.240822
0.538000,-0.242762
0.539000,-0.242115
0.540000,-0.235646
0.541000,-0.225942
0.542000,-0.215914
0.543000,-0.207503
0.544000,-0.202974
0.545000,-0.199416
0.546000,-0.196828
0.547000,-0.194888
0.548000,-0.194241
0.549000,-0.195211
0.550000,-0.196828
0.551000,-0.200710
0.552000,-0.212355
0.553000,-0.221413
0.554000,-0.227235
0.555000,-0.228853
0.556000,-0.226588
0.557000,-0.221089
0.558000,-0.210415
0.559000,-0.199740
0.560000,-0.193270
0.561000,-0.189712
0.562000,-0.186477
0.563000,-0.184860
0.564000,-0.182919
0.565000,-0.183566
0.566000,0.372171
0.567000,0.329795
0.568000,0.349204
0.569000,0.349851
0.570000,0.343058
0.571000,0.325590
0.572000,0.301976
0.573000,0.234693
0.574000,0.114035
0.575000,-0.036059
0.576000,-0.181948
0.577000,-0.246968
0.578000,-0.291931
0.579000,-0.313604
0.580000,-0.322662
0.581000,-0.304223
0.582000,-0.265729
0.583000,-0.218178
0.584000,-0.149924
0.585000,0.002758
0.586000,0.157705
0.587000,0.261541
0.588000,0.291301
0.589000,0.281274
0.590000,0.195552
0.591000,0.045781
0.592000,-0.104313
0.593000,-0.219472
0.594000,-0.273169
0.595000,-0.311340
0.596000,-0.326867
0.597000,-0.325250
0.598000,-0.299371
0.599000,-0.255702
0.600000,-0.205886
0.601000,-0.118546
0.602000,0.062278
0.603000,0.194905
0.604000,0.277715
0.605000,0.287743
0.606000,0.246985
0.607000,0.152529
0.608000,-0.000800
0.609000,-0.160275
0.610000,-0.244703
0.611000,-0.289990
0.612000,-0.323956
0.613000,-0.330749
0.614000,-0.318133
0.615000,-0.289667
0.616000,-0.352745
0.617000,-0.303576
0.618000,-0.292578
0.619000,-0.289020
0.620000,-0.285462
0.621000,-0.279962
0.622000,-0.273816
0.623000,-0.264436
0.624000,-0.253437
0.625000,-0.241468
0.626000,-0.230470
0.627000,-0.224648
0.628000,-0.220119
0.629000,-0.216561
0.630000,-0.214620
0.631000,-0.213326
0.632000,-0.213002
0.633000,-0.214620
0.634000,-0.217531
0.635000,-0.225618
0.636000,-0.234999
0.637000,-0.241145
0.638000,-0.243086
0.639000,-0.242115
0.640000,-0.235646
0.641000,-0.225618
0.642000,-0.215267
0.643000,-0.206856
0.644000,-0.202974
0.645000,-0.199416
0.646000,-0.196505
0.647000,-0.194564
0.648000,-0.194564
0.649000,-0.194888
0.650000,-0.196828
0.651000,-0.201357
0.652000,-0.212355
0.653000,-0.221089
0.654000,-0.226912
0.655000,-0.228206
0.656000,-0.226588
0.657000,-0.220119
0.658000,-0.210091
0.659000,-0.199740
0.660000,-0.193917
0.661000,-0.190035
0.662000,-0.187448
0.663000,-0.184536
0.664000,-0.182919
0.665000,-0.182919
0.666000,0.350175
0.667000,0.328502
0.668000,0.350498
0.669000,0.351469
0.670000,0.343382
0.671000,0.324296
0.672000,0.302623
0.673000,0.233399
0.674000,0.108212
0.675000,-0.038971
0.676000,-0.184860
0.677000,-0.248262
0.678000,-0.291931
0.679000,-0.316839
0.680000,-0.317810
0.681000,-0.300989
0.682000,-0.266053
0.683000,-0.213973
0.684000,-0.148307
0.685000,0.011816
0.686000,0.162557
0.687000,0.264129
0.688000,0.289361
0.689000,0.279009
0.690000,0.193287
0.691000,0.044163
0.692000,-0.108842
0.693000,-0.219472
0.694000,-0.274463
0.695000,-0.310046
0.696000,-0.328808
0.697000,-0.324279
0.698000,-0.299371
0.699000,-0.252143
0.700000,-0.202974
0.701000,-0.116282
0.702000,0.063896
0.703000,0.196846
0.704000,0.277392
0.705000,0.288390
0.706000,0.245044
0.707000,0.150588
0.708000,-0.002741
0.709000,-0.163834
0.710000,-0.246644
0.711000,-0.293549
0.712000,-0.323956
0.713000,-0.331072
0.714000,-0.318133
0.715000,-0.288049
0.716000,-0.338836
0.717000,-0.301312
0.718000,-0.290961
0.719000,-0.288373
0.720000,-0.284815
0.721000,-0.279316
0.722000,-0.273493
0.723000,-0.264436
0.724000,-0.253114
0.725000,-0.241468
0.726000,-0.231117
0.727000,-0.225295
0.728000,-0.220442
0.729000,-0.217208
0.730000,-0.213973
0.731000,-0.213649
0.732000,-0.213649
0.733000,-0.214943
0.734000,-0.217208
0.735000,-0.225618
0.736000,-0.234999
0.737000,-0.241145
0.738000,-0.242439
0.739000,-0.242115
0.740000,-0.235646
0.741000,-0.224971
0.742000,-0.214943
0.743000,-0.207180
0.744000,-0.202974
0.745000,-0.199740
0.746000,-0.196505
0.747000,-0.194564
0.748000,-0.193917
0.749000,-0.194564
0.750000,-0.196828
0.751000,-0.201681
0.752000,-0.212355
0.753000,-0.221089
0.754000,-0.227235
0.755000,-0.228529
0.756000,-0.226265
0.757000,-0.220119
0.758000,-0.209768
0.759000,-0.199416
0.760000,-0.193917
0.761000,-0.190035
0.762000,-0.186801
0.763000,-0.184536
0.764000,-0.182919
0.765000,-0.183242
0.766000,0.344028
0.767000,0.329472
0.768000,0.347910
0.769000,0.351145
0.770000,0.344028
0.771000,0.324620
0.772000,0.301006
0.773000,0.232105
0.774000,0.103684
0.775000,-0.041558
0.776000,-0.187771
0.777000,-0.250202
0.778000,-0.292578
0.779000,-0.316516
0.780000,-0.318780
0.781000,-0.300018
0.782000,-0.266376
0.783000,-0.213002
0.784000,-0.146689
0.785000,0.016021
0.786000,0.168056
0.787000,0.267687
0.788000,0.291625
0.789000,0.279656
0.790000,0.188435
0.791000,0.042223
0.792000,-0.113047
0.793000,-0.222060
0.794000,-0.276081
0.795000,-0.311340
0.796000,-0.328161
0.797000,-0.323632
0.798000,-0.296460
0.799000,-0.251496
0.800000,-0.202328
0.801000,-0.108842
0.802000,0.068748
0.803000,0.200404
0.804000,0.278362
0.805000,0.286449
0.806000,0.239868
0.807000,0.148324
0.808000,-0.008564
0.809000,-0.167068
0.810000,-0.247615
0.811000,-0.292578
0.812000,-0.322662
0.813000,-0.331072
0.814000,-0.320397
0.815000,-0.287403
0.816000,-0.330102
0.817000,-0.298724
0.818000,-0.289990
0.819000,-0.288049
0.820000,-0.284168
0.821000,-0.279316
0.822000,-0.273493
0.823000,-0.264112
0.824000,-0.252467
0.825000,-0.241145
0.826000,-0.229823
0.827000,-0.224648
0.828000,-0.220119
0.829000,-0.216884
0.830000,-0.214296
0.831000,-0.213002
0.832000,-0.212679
0.833000,-0.214620
0.834000,-0.217208
0.835000,-0.226588
0.836000,-0.235646
0.837000,-0.241468
0.838000,-0.242439
0.839000,-0.241792
0.840000,-0.235969
0.841000,-0.225295
0.842000,-0.214943
0.843000,-0.207180
0.844000,-0.202974
0.845000,-0.199093
0.846000,-0.196505
0.847000,-0.194241
0.848000,-0.194564
0.849000,-0.195534
0.850000,-0.196828
0.851000,-0.202004
0.852000,-0.212679
0.853000,-0.221736
0.854000,-0.227235
0.855000,-0.228853
0.856000,-0.225618
0.857000,-0.220119
0.858000,-0.209444
0.859000,-0.199093
0.860000,-0.193270
0.861000,-0.189712
0.862000,-0.187124
0.863000,-0.184536
0.864000,-0.182919
0.865000,-0.183242
0.866000,0.337235
0.867000,0.328502
0.868000,0.347910
0.869000,0.350175
0.870000,0.346293
0.871000,0.323002
0.872000,0.300359
0.873000,0.229517
0.874000,0.098184
0.875000,-0.045117
0.876000,-0.191329
0.877000,-0.252790
0.878000,-0.293549
0.879000,-0.316192
0.880000,-0.320074
0.881000,-0.298724
0.882000,-0.264759
0.883000,-0.212032
0.884000,-0.143454
0.885000,0.021196
0.886000,0.165792
0.887000,0.265423
0.888000,0.291948
0.889000,0.279009
0.890000,0.186818
0.891000,0.041252
0.892000,-0.116606
0.893000,-0.219472
0.894000,-0.276081
0.895000,-0.314251
0.896000,-0.328484
0.897000,-0.322985
0.898000,-0.296460
0.899000,-0.249879
0.900000,-0.201034
0.901000,-0.104637
0.902000,0.071659
0.903000,0.204286
0.904000,0.279333
0.905000,0.286449
0.906000,0.238251
0.907000,0.145736
0.908000,-0.012445
0.909000,-0.169333
0.910000,-0.249555
0.911000,-0.295166
0.912000,-0.323632
0.913000,-0.331396
0.914000,-0.319103
0.915000,-0.285785
0.916000,-0.324279
0.917000,-0.297107
0.918000,-0.289343
0.919000,-0.286432
0.920000,-0.284815
0.921000,-0.278345
0.922000,-0.272522
0.923000,-0.263465
0.924000,-0.252790
0.925000,-0.240822
0.926000,-0.229500
0.927000,-0.224648
0.928000,-0.220119
0.929000,-0.216561
0.930000,-0.214620
0.931000,-0.213002
0.932000,-0.212355
0.933000,-0.213973
0.934000,-0.217208
0.935000,-0.226588
0.936000,-0.235322
0.937000,-0.241145
0.938000,-0.242762
0.939000,-0.241792
0.940000,-0.235322
0.941000,-0.224971
0.942000,-0.213973
0.943000,-0.207180
0.944000,-0.202328
0.945000,-0.199416
0.946000,-0.196505
0.947000,-0.194241
0.948000,-0.193917
0.949000,-0.195211
0.950000,-0.196828
0.951000,-0.202328
0.952000,-0.213326
0.953000,-0.221736
0.954000,-0.227235
0.955000,-0.228529
0.956000,-0.225942
0.957000,-0.219472
0.958000,-0.209444
0.959000,-0.199093
0.960000,-0.193594
0.961000,-0.190359
0.962000,-0.187124
0.963000,-0.184213
0.964000,-0.183242
0.965000,-0.183566
0.966000,0.333354
0.967000,0.328825
0.968000,0.348557
0.969000,0.350175
0.970000,0.344675
0.971000,0.325267
0.972000,0.301653
0.973000,0.230164
0.974000,0.094303
0.975000,-0.051586
0.976000,-0.194564
0.977000,-0.253114
0.978000,-0.293872
0.979000,-0.315869
0.980000,-0.318780
0.981000,-0.300018
0.982000,-0.265729
0.983000,-0.209768
0.984000,-0.140867
0.985000,0.027666
0.986000,0.169997
0.987000,0.269305
0.988000,0.291625
0.989000,0.275774
0.990000,0.182289
0.991000,0.038988
0.992000,-0.123399
0.993000,-0.223677
0.994000,-0.276081
0.995000,-0.314251
0.996000,-0.329778
0.997000,-0.322015
0.998000,-0.297107
0.999000,-0.248909
1.000000,-0.200387
1.001000,-0.100432
1.002000,0.075217
1.003000,0.206873
1.004000,0.279980
1.005000,0.286449
1.006000,0.236957
1.007000,0.143148
1.008000,-0.016327
1.009000,-0.171921
1.010000,-0.249555
1.011000,-0.296136
1.012000,-0.323956
1.013000,-0.330102
1.014000,-0.318780
1.015000,-0.282227
1.016000,-0.318780
1.017000,-0.295813
1.018000,-0.288373
1.019000,-0.287079
1.020000,-0.283521
1.021000,-0.278669
1.022000,-0.272522
1.023000,-0.263465
1.024000,-0.251173
1.025000,-0.239528
1.026000,-0.229500
1.027000,-0.224324
1.028000,-0.220442
1.029000,-0.216561
1.030000,-0.213649
1.031000,-0.213002
1.032000,-0.212679
1.033000,-0.213973
1.034000,-0.216884
1.035000,-0.226588
1.036000,-0.234999
1.037000,-0.241145
1.038000,-0.243086
1.039000,-0.241468
1.040000,-0.234675
1.041000,-0.224001
1.042000,-0.213649
1.043000,-0.206533
1.044000,-0.202328
1.045000,-0.198769
1.046000,-0.195858
1.047000,-0.194241
1.048000,-0.194241
1.049000,-0.194888
1.050000,-0.196828
1.051000,-0.202004
1.052000,-0.213326
1.053000,-0.221736
1.054000,-0.226912
1.055000,-0.228529
1.056000,-0.225618
1.057000,-0.219795
1.058000,-0.209121
1.059000,-0.198446
1.060000,-0.193270
1.061000,-0.189712
1.062000,-0.186477
1.063000,-0.184213
1.064000,-0.182919
1.065000,-0.183242
1.066000,0.330442
1.067000,0.328825
1.068000,0.350498
1.069000,0.350175
1.070000,0.343382
1.071000,0.323649
1.072000,0.299065
1.073000,0.229193
1.074000,0.088804
1.075000,-0.052557
1.076000,-0.201034
1.077000,-0.249232
1.078000,-0.292578
1.079000,-0.319103
1.080000,-0.318133
1.081000,-0.294843
1.082000,-0.262818
1.083000,-0.209121
1.084000,-0.139573
1.085000,0.032195
1.086000,0.171614
1.087000,0.271246
1.088000,0.290331
1.089000,0.276098
1.090000,0.179054
1.091000,0.033812
1.092000,-0.125340
1.093000,-0.223677
1.094000,-0.278022
1.095000,-0.314575
1.096000,-0.327190
1.097000,-0.322338
1.098000,-0.295166
1.099000,-0.243733
1.100000,-0.196505
1.101000,-0.096550
1.102000,0.076511
1.103000,0.207520
1.104000,0.278686
1.105000,0.286126
1.106000,0.234046
1.107000,0.139590
1.108000,-0.019562
1.109000,-0.174508
1.110000,-0.252143
1.111000,-0.297107
1.112000,-0.324926
1.113000,-0.330749
1.114000,-0.317810
1.115000,-0.284491
1.116000,-0.314575
1.117000,-0.293872
1.118000,-0.287403
1.119000,-0.286109
1.120000,-0.283197
1.121000,-0.278345
1.122000,-0.272199
1.123000,-0.263142
1.124000,-0.250849
1.125000,-0.239528
1.126000,-0.228529
1.127000,-0.224971
1.128000,-0.220119
1.129000,-0.216237
1.130000,-0.213973
1.131000,-0.212679
1.132000,-0.212679
1.133000,-0.214296
1.134000,-0.217208
1.135000,-0.226588
1.136000,-0.235322
1.137000,-0.241145
1.138000,-0.242115
1.139000,-0.241145
1.140000,-0.234675
1.141000,-0.224001
1.142000,-0.213649
1.143000,-0.206856
1.144000,-0.202328
1.145000,-0.199093
1.146000,-0.195858
1.147000,-0.194241
1.148000,-0.193594
1.149000,-0.195211
1.150000,-0.197152
1.151000,-0.202328
1.152000,-0.213649
1.153000,-0.221736
1.154000,-0.227235
1.155000,-0.228853
1.156000,-0.225618
1.157000,-0.219148
1.158000,-0.208474
1.159000,-0.198446
1.160000,-0.193270
1.161000,-0.189388
1.162000,-0.186154
1.163000,-0.183889
1.164000,-0.182919
1.165000,-0.183242
1.166000,0.329148
1.167000,0.328825
1.168000,0.350175
1.169000,0.349204
1.170000,0.343382
1.171000,0.321385
1.172000,0.299388
1.173000,0.227576
1.174000,0.086863
1.175000,-0.058379
1.176000,-0.199740
1.177000,-0.252467
1.178000,-0.295813
1.179000,-0.313604
1.180000,-0.317486
1.181000,-0.298077
1.182000,-0.264112
1.183000,-0.207180
1.184000,-0.137632
1.185000,0.036723
1.186000,0.175819
1.187000,0.272540
1.188000,0.290331
1.189000,0.275451
1.190000,0.177113
1.191000,0.031548
1.192000,-0.128574
1.193000,-0.225942
1.194000,-0.279316
1.195000,-0.315545
1.196000,-0.326543
1.197000,-0.321368
1.198000,-0.292902
1.199000,-0.246321
1.200000,-0.197152
1.201000,-0.091374
1.202000,0.081687
1.203000,0.210108
1.204000,0.279980
1.205000,0.284185
1.206000,0.233399
1.207000,0.135385
1.208000,-0.023767
1.209000,-0.177743
1.210000,-0.253437
1.211000,-0.296460
1.212000,-0.325573
1.213000,-0.329778
1.214000,-0.317486
1.215000,-0.283197
1.216000,-0.311016
1.217000,-0.292578
1.218000,-0.286756
1.219000,-0.285785
1.220000,-0.283521
1.221000,-0.277698
1.222000,-0.271876
1.223000,-0.263142
1.224000,-0.250202
1.225000,-0.239528
1.226000,-0.228853
1.227000,-0.223677
1.228000,-0.219795
1.229000,-0.216561
1.230000,-0.213002
1.231000,-0.213326
1.232000,-0.212679
1.233000,-0.214620
1.234000,-0.216884
1.235000,-0.226912
1.236000,-0.235969
1.237000,-0.240822
1.238000,-0.242439
1.239000,-0.241145
1.240000,-0.234352
1.241000,-0.224001
1.242000,-0.213326
1.243000,-0.206533
1.244000,-0.201681
1.245000,-0.198769
1.246000,-0.195858
1.247000,-0.193917
1.248000,-0.193917
1.249000,-0.194888
1.250000,-0.196181
1.251000,-0.202651
1.252000,-0.213002
1.253000,-0.222707
1.254000,-0.226912
1.255000,-0.229176
1.256000,-0.225618
1.257000,-0.218825
1.258000,-0.208474
1.259000,-0.198446
1.260000,-0.192623
1.261000,-0.189712
1.262000,-0.186154
1.263000,-0.184213
1.264000,-0.183242
1.265000,-0.182919
1.266000,0.326561
1.267000,0.330119
1.268000,0.351792
1.269000,0.349528
1.270000,0.343058
1.271000,0.323002
1.272000,0.299388
1.273000,0.226929
1.274000,0.080070
1.275000,-0.062585
1.276000,-0.201681
1.277000,-0.253437
1.278000,-0.297107
1.279000,-0.316839
1.280000,-0.318133
1.281000,-0.295166
1.282000,-0.257966
1.283000,-0.209121
1.284000,-0.136338
1.285000,0.042223
1.286000,0.178407
1.287000,0.274804
1.288000,0.291625
1.289000,0.271246
1.290000,0.175172
1.291000,0.028313
1.292000,-0.132780
1.293000,-0.225942
1.294000,-0.280609
1.295000,-0.318133
1.296000,-0.328808
1.297000,-0.322662
1.298000,-0.294196
1.299000,-0.242115
1.300000,-0.195534
1.301000,-0.088139
1.302000,0.086216
1.303000,0.213019
1.304000,0.281921
1.305000,0.284185
1.306000,0.229517
1.307000,0.129885
1.308000,-0.027972
1.309000,-0.180331
1.310000,-0.253761
1.311000,-0.298401
1.312000,-0.326220
1.313000,-0.330102
1.314000,-0.316192
1.315000,-0.280609
1.316000,-0.307458
1.317000,-0.290961
1.318000,-0.286109
1.319000,-0.285138
1.320000,-0.282550
1.321000,-0.277375
1.322000,-0.271552
1.323000,-0.262495
1.324000,-0.249879
1.325000,-0.238881
1.326000,-0.228206
1.327000,-0.223677
1.328000,-0.219472
1.329000,-0.216237
1.330000,-0.213326
1.331000,-0.212679
1.332000,-0.212679
1.333000,-0.213973
1.334000,-0.216884
1.335000,-0.228529
1.336000,-0.235646
1.337000,-0.241468
1.338000,-0.242762
1.339000,-0.241145
1.340000,-0.233705
1.341000,-0.223677
1.342000,-0.212679
1.343000,-0.206533
1.344000,-0.202004
1.345000,-0.199416
1.346000,-0.195858
1.347000,-0.193594
1.348000,-0.193594
1.349000,-0.195534
1.350000,-0.196828
1.351000,-0.202651
1.352000,-0.213326
1.353000,-0.221413
1.354000,-0.227235
1.355000,-0.228206
1.356000,-0.224971
1.357000,-0.219148
1.358000,-0.208474
1.359000,-0.198122
1.360000,-0.192947
1.361000,-0.189712
1.362000,-0.185830
1.363000,-0.183889
1.364000,-0.182919
1.365000,0.409048
1.366000,0.325914
1.367000,0.330442
1.368000,0.350822
1.369000,0.350498
1.370000,0.343705
1.371000,0.321708
1.372000,0.298741
1.373000,0.224018
1.374000,0.077158
1.375000,-0.067437
1.376000,-0.202328
1.377000,-0.257642
1.378000,-0.296783
1.379000,-0.318456
1.380000,-0.319427
1.381000,-0.296136
1.382000,-0.258936
1.383000,-0.205886
1.384000,-0.134720
1.385000,0.046751
1.386000,0.181966
1.387000,0.274157
1.388000,0.292919
1.389000,0.265100
1.390000,0.171291
1.391000,0.025725
1.392000,-0.137955
1.393000,-0.226588
1.394000,-0.278022
1.395000,-0.316839
1.396000,-0.329131
1.397000,-0.322338
1.398000,-0.294843
1.399000,-0.242762
1.400000,-0.194888
1.401000,-0.083934
1.402000,0.087510
1.403000,0.215607
1.404000,0.283538
1.405000,0.286126
1.406000,0.231134
1.407000,0.127298
1.408000,-0.029913
1.409000,-0.183242
1.410000,-0.256995
1.411000,-0.300989
1.412000,-0.326867
1.413000,-0.329455
1.414000,-0.316192
1.415000,-0.366331
1.416000,-0.304547
1.417000,-0.289343
1.418000,-0.285462
1.419000,-0.284815
1.420000,-0.282227
1.421000,-0.276728
1.422000,-0.271552
1.423000,-0.262171
1.424000,-0.249879
1.425000,-0.238234
1.426000,-0.228529
1.427000,-0.223677
1.428000,-0.219148
1.429000,-0.216237
1.430000,-0.213326
1.431000,-0.212679
1.432000,-0.212679
1.433000,-0.214296
1.434000,-0.217208
1.435000,-0.227882
1.436000,-0.235322
1.437000,-0.241145
1.438000,-0.242762
1.439000,-0.240175
1.440000,-0.233382
1.441000,-0.224324
1.442000,-0.212355
1.443000,-0.206209
1.444000,-0.202004
1.445000,-0.198446
1.446000,-0.195534
1.447000,-0.193594
1.448000,-0.193917
1.449000,-0.194888
1.450000,-0.196828
1.451000,-0.203621
1.452000,-0.214620
1.453000,-0.222060
1.454000,-0.227235
1.455000,-0.228529
1.456000,-0.225295
1.457000,-0.218178
1.458000,-0.207503
1.459000,-0.197799
1.460000,-0.193270
1.461000,-0.189388
1.462000,-0.185507
1.463000,-0.183889
1.464000,-0.182919
1.465000,0.362143
1.466000,0.323973
1.467000,0.330442
1.468000,0.353733
1.469000,0.349204
1.470000,0.343382
1.471000,0.320738
1.472000,0.297771
1.473000,0.224341
1.474000,0.073600
1.475000,-0.071966
1.476000,-0.202651
1.477000,-0.256995
1.478000,-0.298077
1.479000,-0.318780
1.480000,-0.321044
1.481000,-0.293872
1.482000,-0.257642
1.483000,-0.204592
1.484000,-0.132780
1.485000,0.050633
1.486000,0.184877
1.487000,0.275451
1.488000,0.291301
1.489000,0.267364
1.490000,0.167732
1.491000,0.022814
1.492000,-0.143131
1.493000,-0.228206
1.494000,-0.281256
1.495000,-0.319750
1.496000,-0.330102
1.497000,-0.323309
1.498000,-0.293872
1.499000,-0.241792
1.500000,-0.191653
1.501000,-0.078435
1.502000,0.090744
1.503000,0.217548
1.504000,0.283538
1.505000,0.284832
1.506000,0.227576
1.507000,0.122122
1.508000,-0.034442
1.509000,-0.183889
1.510000,-0.261524
1.511000,-0.299695
1.512000,-0.325573
1.513000,-0.330749
1.514000,-0.314575
1.515000,-0.346276
1.516000,-0.302606
1.517000,-0.288373
1.518000,-0.284815
1.519000,-0.284491
1.520000,-0.282227
1.521000,-0.277051
1.522000,-0.270905
1.523000,-0.262171
1.524000,-0.249232
1.525000,-0.237910
1.526000,-0.228206
1.527000,-0.222707
1.528000,-0.219148
1.529000,-0.215267
1.530000,-0.213326
1.531000,-0.212355
1.532000,-0.212679
1.533000,-0.214296
1.534000,-0.217208
1.535000,-0.228206
1.536000,-0.235646
1.537000,-0.241468
1.538000,-0.242439
1.539000,-0.240498
1.540000,-0.233705
1.541000,-0.223354
1.542000,-0.212679
1.543000,-0.205562
1.544000,-0.202328
1.545000,-0.198122
1.546000,-0.195858
1.547000,-0.193917
1.548000,-0.193594
1.549000,-0.195858
1.550000,-0.197799
1.551000,-0.202974
1.552000,-0.213973
1.553000,-0.222707
1.554000,-0.227235
1.555000,-0.228206
1.556000,-0.224971
1.557000,-0.218178
1.558000,-0.207827
1.559000,-0.197799
1.560000,-0.192300
1.561000,-0.189388
1.562000,-0.186477
1.563000,-0.183242
1.564000,-0.183242
1.565000,0.349204
1.566000,0.323002
1.567000,0.330766
1.568000,0.353409
1.569000,0.348881
1.570000,0.342411
1.571000,0.319444
1.572000,0.296477
1.573000,0.219166
1.574000,0.069395
1.575000,-0.077465
1.576000,-0.205886
1.577000,-0.259583
1.578000,-0.300018
1.579000,-0.318133
1.580000,-0.318133
1.581000,-0.294843
1.582000,-0.256025
1.583000,-0.202651
1.584000,-0.130515
1.585000,0.052897
1.586000,0.186494
1.587000,0.279009
1.588000,0.291625
1.589000,0.261218
1.590000,0.165468
1.591000,0.016668
1.592000,-0.143454
1.593000,-0.232411
1.594000,-0.285785
1.595000,-0.317486
1.596000,-0.329455
1.597000,-0.322338
1.598000,-0.295166
1.599000,-0.240822
1.600000,-0.190035
1.601000,-0.075847
1.602000,0.095273
1.603000,0.221430
1.604000,0.283538
1.605000,0.286773
1.606000,0.225635
1.607000,0.115329
1.608000,-0.041235
1.609000,-0.187124
1.610000,-0.259260
1.611000,-0.304547
1.612000,-0.326220
1.613000,-0.329131
1.614000,-0.311016
1.615000,-0.334954
1.616000,-0.299695
1.617000,-0.287079
1.618000,-0.284168
1.619000,-0.284168
1.620000,-0.281903
1.621000,-0.276404
1.622000,-0.271229
1.623000,-0.261201
1.624000,-0.248585
1.625000,-0.237587
1.626000,-0.227882
1.627000,-0.222707
1.628000,-0.218825
1.629000,-0.215590
1.630000,-0.213002
1.631000,-0.212679
1.632000,-0.212679
1.633000,-0.213973
1.634000,-0.217208
1.635000,-0.228206
1.636000,-0.235646
1.637000,-0.241468
1.638000,-0.242439
1.639000,-0.240175
1.640000,-0.233382
1.641000,-0.223030
1.642000,-0.212032
1.643000,-0.205886
1.644000,-0.201034
1.645000,-0.198446
1.646000,-0.194888
1.647000,-0.193917
1.648000,-0.192623
1.649000,-0.194888
1.650000,-0.197152
1.651000,-0.203298
1.652000,-0.214296
1.653000,-0.222707
1.654000,-0.226912
1.655000,-0.228206
1.656000,-0.224971
1.657000,-0.218178
1.658000,-0.207503
1.659000,-0.197475
1.660000,-0.192623
1.661000,-0.189065
1.662000,-0.185507
1.663000,-0.183566
1.664000,-0.182595
1.665000,0.341117
1.666000,0.321708
1.667000,0.332383
1.668000,0.358909
1.669000,0.348557
1.670000,0.341117
1.671000,0.319121
1.672000,0.295507
1.673000,0.217225
1.674000,0.065837
1.675000,-0.081346
1.676000,-0.206856
1.677000,-0.260230
1.678000,-0.300342
1.679000,-0.318133
1.680000,-0.318780
1.681000,-0.293872
1.682000,-0.253437
1.683000,-0.202004
1.684000,-0.129221
1.685000,0.055809
1.686000,0.192317
1.687000,0.280627
1.688000,0.290978
1.689000,0.258307
1.690000,0.162557
1.691000,0.013756
1.692000,-0.148307
1.693000,-0.233705
1.694000,-0.284168
1.695000,-0.317810
1.696000,-0.329131
1.697000,-0.320074
1.698000,-0.290637
1.699000,-0.238234
1.700000,-0.190035
1.701000,-0.075524
1.702000,0.101743
1.703000,0.223371
1.704000,0.283861
1.705000,0.286126
1.706000,0.227253
1.707000,0.114035
1.708000,-0.041235
1.709000,-0.189388
1.710000,-0.260554
1.711000,-0.303576
1.712000,-0.329131
1.713000,-0.329455
1.714000,-0.312957
1.715000,-0.327190
1.716000,-0.298077
1.717000,-0.285785
1.718000,-0.283521
1.719000,-0.283521
1.720000,-0.280933
1.721000,-0.276404
1.722000,-0.270582
1.723000,-0.260877
1.724000,-0.247938
1.725000,-0.237263
1.726000,-0.227559
1.727000,-0.223030
1.728000,-0.218501
1.729000,-0.215590
1.730000,-0.212679
1.731000,-0.212355
1.732000,-0.212679
1.733000,-0.213649
1.734000,-0.217531
1.735000,-0.227882
1.736000,-0.236293
1.737000,-0.241468
1.738000,-0.242115
1.739000,-0.239851
1.740000,-0.233058
1.741000,-0.222707
1.742000,-0.211708
1.743000,-0.205562
1.744000,-0.201681
1.745000,-0.198446
1.746000,-0.195211
1.747000,-0.193594
1.748000,-0.193917
1.749000,-0.194888
1.750000,-0.196505
1.751000,-0.203945
1.752000,-0.214296
1.753000,-0.222707
1.754000,-0.227235
1.755000,-0.228206
1.756000,-0.224971
1.757000,-0.216561
1.758000,-0.206856
1.759000,-0.197475
1.760000,-0.192300
1.761000,-0.188741
1.762000,-0.185507
1.763000,-0.183566
1.764000,-0.182595
1.765000,0.332383
1.766000,0.322679
1.767000,0.331736
1.768000,0.357938
1.769000,0.348557
1.770000,0.341117
1.771000,0.316856
1.772000,0.296801
1.773000,0.215931
1.774000,0.063896
1.775000,-0.085552
1.776000,-0.206856
1.777000,-0.262495
1.778000,-0.300342
1.779000,-0.317486
1.780000,-0.317486
1.781000,-0.293549
1.782000,-0.251820
1.783000,-0.200710
1.784000,-0.123075
1.785000,0.060337
1.786000,0.195552
1.787000,0.280303
1.788000,0.290978
1.789000,0.255395
1.790000,0.159969
1.791000,0.010198
1.792000,-0.151541
1.793000,-0.235646
1.794000,-0.283844
1.795000,-0.319103
1.796000,-0.330425
1.797000,-0.321368
1.798000,-0.291931
1.799000,-0.238881
1.800000,-0.183242
1.801000,-0.071966
1.802000,0.103037
1.803000,0.226929
1.804000,0.286126
1.805000,0.285155
1.806000,0.222077
1.807000,0.105948
1.808000,-0.043823
1.809000,-0.192623
1.810000,-0.263142
1.811000,-0.303900
1.812000,-0.328161
1.813000,-0.328484
1.814000,-0.311016
1.815000,-0.321368
1.816000,-0.296136
1.817000,-0.285462
1.818000,-0.283197
1.819000,-0.283197
1.820000,-0.281256
1.821000,-0.274787
1.822000,-0.270258
1.823000,-0.262171
1.824000,-0.248262
1.825000,-0.236616
1.826000,-0.227235
1.827000,-0.222707
1.828000,-0.218501
1.829000,-0.215590
1.830000,-0.213002
1.831000,-0.212679
1.832000,-0.213002
1.833000,-0.213973
1.834000,-0.217208
1.835000,-0.228206
1.836000,-0.236293
1.837000,-0.241468
1.838000,-0.242115
1.839000,-0.239851
1.840000,-0.232735
1.841000,-0.222707
1.842000,-0.211385
1.843000,-0.205886
1.844000,-0.201681
1.845000,-0.198122
1.846000,-0.195211
1.847000,-0.193594
1.848000,-0.193594
1.849000,-0.195211
1.850000,-0.197152
1.851000,-0.203298
1.852000,-0.215590
1.853000,-0.223677
1.854000,-0.226912
1.855000,-0.228529
1.856000,-0.224324
1.857000,-0.217208
1.858000,-0.207503
1.859000,-0.197152
1.860000,-0.191976
1.861000,-0.188741
1.862000,-0.186154
1.863000,-0.183566
1.864000,-0.182919
1.865000,0.330119
1.866000,0.322355
1.867000,0.331413
1.868000,0.355674
1.869000,0.347587
1.870000,0.340470
1.871000,0.318474
1.872000,0.294536
1.873000,0.211726
1.874000,0.058720
1.875000,-0.090404
1.876000,-0.204592
1.877000,-0.260554
1.878000,-0.300665
1.879000,-0.319750
1.880000,-0.319103
1.881000,-0.294196
1.882000,-0.249879
1.883000,-0.200063
1.884000,-0.117253
1.885000,0.064543
1.886000,0.198463
1.887000,0.281597
1.888000,0.290331
1.889000,0.251837
1.890000,0.157705
1.891000,0.007934
1.892000,-0.154129
1.893000,-0.237910
1.894000,-0.285462
1.895000,-0.319427
1.896000,-0.329455
1.897000,-0.320074
1.898000,-0.287726
1.899000,-0.237910
1.900000,-0.183889
1.901000,-0.066790
1.902000,0.107242
1.903000,0.229840
1.904000,0.283538
1.905000,0.284508
1.906000,0.222077
1.907000,0.099155
1.908000,-0.047705
1.909000,-0.195211
1.910000,-0.262171
1.911000,-0.305841
1.912000,-0.327837
1.913000,-0.326867
1.914000,-0.311016
1.915000,-0.316839
1.916000,-0.294519
1.917000,-0.283844
1.918000,-0.282550
1.919000,-0.282550
1.920000,-0.280609
1.921000,-0.276081
1.922000,-0.270582
1.923000,-0.260877
1.924000,-0.247615
1.925000,-0.236293
1.926000,-0.227882
1.927000,-0.221736
1.928000,-0.218178
1.929000,-0.215914
1.930000,-0.212679
1.931000,-0.212032
1.932000,-0.212679
1.933000,-0.213649
1.934000,-0.217531
1.935000,-0.228206
1.936000,-0.236293
1.937000,-0.241468
1.938000,-0.242115
1.939000,-0.239204
1.940000,-0.232735
1.941000,-0.222060
1.942000,-0.211061
1.943000,-0.205239
1.944000,-0.201681
1.945000,-0.197475
1.946000,-0.195211
1.947000,-0.193594
1.948000,-0.193270
1.949000,-0.195211
1.950000,-0.197152
1.951000,-0.203945
1.952000,-0.214943
1.953000,-0.223030
1.954000,-0.227235
1.955000,-0.228853
1.956000,-0.224001
1.957000,-0.216561
1.958000,-0.206856
1.959000,-0.196828
1.960000,-0.191976
1.961000,-0.187771
1.962000,-0.185507
1.963000,-0.183566
1.964000,-0.182272
1.965000,0.327208
1.966000,0.322679
1.967000,0.332060
1.968000,0.356968
1.969000,0.347587
1.970000,0.338853
1.971000,0.316533
1.972000,0.292272
1.973000,0.209138
1.974000,0.059043
1.975000,-0.095579
1.976000,-0.207180
1.977000,-0.264436
1.978000,-0.298724
1.979000,-0.316839
1.980000,-0.315222
1.981000,-0.290637
1.982000,-0.248585
1.983000,-0.198122
1.984000,-0.111430
1.985000,0.066484
1.986000,0.200080
1.987000,0.282244
1.988000,0.291625
1.989000,0.248279
1.990000,0.156734
1.991000,0.003405
1.992000,-0.157364
1.993000,-0.237910
1.994000,-0.283844
1.995000,-0.319750
1.996000,-0.330425
1.997000,-0.320721
1.998000,-0.287403
1.999000,-0.234999
2.000000,-0.182919
2.001000,-0.064202
2.002000,0.109506
2.003000,0.230811
2.004000,0.285155
2.005000,0.285155
2.006000,0.222400
2.007000,0.092685
2.008000,-0.052233
2.009000,-0.196828
2.010000,-0.260877
2.011000,-0.304870
2.012000,-0.328484
2.013000,-0.328484
2.014000,-0.308752
2.015000,-0.312310
2.016000,-0.292578
2.017000,-0.282874
2.018000,-0.282227
2.019000,-0.281903
2.020000,-0.279639
2.021000,-0.275110
2.022000,-0.269288
2.023000,-0.260230
2.024000,-0.246968
2.025000,-0.236293
2.026000,-0.227235
2.027000,-0.222383
2.028000,-0.218501
2.029000,-0.214620
2.030000,-0.212355
2.031000,-0.212355
2.032000,-0.212679
2.033000,-0.213973
2.034000,-0.217855
2.035000,-0.228529
2.036000,-0.236616
2.037000,-0.241468
2.038000,-0.242115
2.039000,-0.238881
2.040000,-0.232088
2.041000,-0.221736
2.042000,-0.210738
2.043000,-0.205562
2.044000,-0.201357
2.045000,-0.197799
2.046000,-0.194888
2.047000,-0.193594
2.048000,-0.193594
2.049000,-0.195211
2.050000,-0.197475
2.051000,-0.203945
2.052000,-0.215267
2.053000,-0.223354
2.054000,-0.227235
2.055000,-0.228206
2.056000,-0.224648
2.057000,-0.215914
2.058000,-0.206856
2.059000,-0.196505
2.060000,-0.192623
2.061000,-0.188094
2.062000,-0.185183
2.063000,-0.183566
2.064000,-0.182272
2.065000,0.325267
2.066000,0.323649
2.067000,0.331736
2.068000,0.359879
2.069000,0.349204
2.070000,0.338206
2.071000,0.316209
2.072000,0.291625
2.073000,0.203639
2.074000,0.055485
2.075000,-0.098167
2.076000,-0.209444
2.077000,-0.262818
2.078000,-0.300665
2.079000,-0.321691
2.080000,-0.316516
2.081000,-0.289990
2.082000,-0.247291
2.083000,-0.197799
2.084000,-0.108519
2.085000,0.071659
2.086000,0.203639
2.087000,0.282567
2.088000,0.288067
2.089000,0.245044
2.090000,0.153823
2.091000,-0.000153
2.092000,-0.160599
2.093000,-0.241145
2.094000,-0.287403
2.095000,-0.319750
2.096000,-0.329131
2.097000,-0.320397
2.098000,-0.286432
2.099000,-0.235969
2.100000,-0.181301
2.101000,-0.060967
2.102000,0.112741
2.103000,0.233722
2.104000,0.286126
2.105000,0.285155
2.106000,0.218195
2.107000,0.093009
2.108000,-0.056115
2.109000,-0.202328
2.110000,-0.262818
2.111000,-0.306488
2.112000,-0.327514
2.113000,-0.329131
2.114000,-0.306811
2.115000,-0.308429
2.116000,-0.290961
2.117000,-0.282550
2.118000,-0.281903
2.119000,-0.281580
2.120000,-0.279962
2.121000,-0.275110
2.122000,-0.269288
2.123000,-0.259583
2.124000,-0.246968
2.125000,-0.235969
2.126000,-0.227559
2.127000,-0.222060
2.128000,-0.218178
2.129000,-0.214296
2.130000,-0.212355
2.131000,-0.212032
2.132000,-0.213002
2.133000,-0.213326
2.134000,-0.218178
2.135000,-0.228853
2.136000,-0.236616
2.137000,-0.241468
2.138000,-0.242439
2.139000,-0.238881
2.140000,-0.232088
2.141000,-0.221089
2.142000,-0.210738
2.143000,-0.205239
2.144000,-0.201357
2.145000,-0.197475
2.146000,-0.195211
2.147000,-0.193270
2.148000,-0.193594
2.149000,-0.195211
2.150000,-0.197152
2.151000,-0.204268
2.152000,-0.215267
2.153000,-0.223354
2.154000,-0.227559
2.155000,-0.228529
2.156000,-0.224648
2.157000,-0.215914
2.158000,-0.206209
2.159000,-0.196181
2.160000,-0.192300
2.161000,-0.188094
2.162000,-0.185183
2.163000,-0.183889
2.164000,-0.182919
2.165000,0.324296
2.166000,0.322679
2.167000,0.333030
2.168000,0.359555
2.169000,0.347910
2.170000,0.335942
2.171000,0.315886
2.172000,0.291301
2.173000,0.200404
2.174000,0.053868
2.175000,-0.102373
2.176000,-0.210415
2.177000,-0.267023
2.178000,-0.303253
2.179000,-0.319103
2.180000,-0.317810
2.181000,-0.290961
2.182000,-0.244703
2.183000,-0.196505
2.184000,-0.101726
2.185000,0.075217
2.186000,0.206873
2.187000,0.283861
2.188000,0.290978
2.189000,0.243103
2.190000,0.149941
2.191000,-0.007593
2.192000,-0.163510
2.193000,-0.243086
2.194000,-0.288373
2.195000,-0.320397
2.196000,-0.327514
2.197000,-0.319750
2.198000,-0.285785
2.199000,-0.234675
2.200000,-0.179684
2.201000,-0.058056
2.202000,0.115652
2.203000,0.236633
2.204000,0.287420
2.205000,0.282891
2.206000,0.217872
2.207000,0.086216
2.208000,-0.059026
2.209000,-0.205239
2.210000,-0.265729
2.211000,-0.308105
2.212000,-0.324926
2.213000,-0.330102
2.214000,-0.394474
2.215000,-0.305517
2.216000,-0.289343
2.217000,-0.280933
2.218000,-0.281903
2.219000,-0.281903
2.220000,-0.279316
2.221000,-0.274463
2.222000,-0.268964
2.223000,-0.258936
2.224000,-0.246968
2.225000,-0.235646
2.226000,-0.226912
2.227000,-0.222060
2.228000,-0.218178
2.229000,-0.214943
2.230000,-0.212032
2.231000,-0.211708
2.232000,-0.212679
2.233000,-0.212679
2.234000,-0.218501
2.235000,-0.229823
2.236000,-0.237263
2.237000,-0.241145
2.238000,-0.242115
2.239000,-0.238234
2.240000,-0.231764
2.241000,-0.221089
2.242000,-0.210091
2.243000,-0.204592
2.244000,-0.201357
2.245000,-0.197475
2.246000,-0.194888
2.247000,-0.193594
2.248000,-0.193270
2.249000,-0.195211
2.250000,-0.197799
2.251000,-0.203945
2.252000,-0.215267
2.253000,-0.223354
2.254000,-0.227559
2.255000,-0.228529
2.256000,-0.224324
2.257000,-0.215267
2.258000,-0.205886
2.259000,-0.195858
2.260000,-0.191653
2.261000,-0.188094
2.262000,-0.185507
2.263000,-0.182919
2.264000,0.380905
2.265000,0.321385
2.266000,0.324296
2.267000,0.331413
2.268000,0.359879
2.269000,0.347263
2.270000,0.334648
2.271000,0.317180
2.272000,0.291948
2.273000,0.196846
2.274000,0.051280
2.275000,-0.107225
2.276000,-0.213326
2.277000,-0.265406
2.278000,-0.305194
2.279000,-0.319103
2.280000,-0.316516
2.281000,-0.288373
2.282000,-0.242762
2.283000,-0.195211
2.284000,-0.098491
2.285000,0.075541
2.286000,0.207844
2.287000,0.284185
2.288000,0.291301
2.289000,0.239221
2.290000,0.147677
2.291000,-0.010504
2.292000,-0.166421
2.293000,-0.244703
2.294000,-0.288373
2.295000,-0.321691
2.296000,-0.327514
2.297000,-0.320074
2.298000,-0.285462
2.299000,-0.234028
2.300000,-0.177096
2.301000,-0.054174
2.302000,0.117593
2.303000,0.237604
2.304000,0.286773
2.305000,0.283538
2.306000,0.217225
2.307000,0.080717
2.308000,-0.063555
2.309000,-0.207827
2.310000,-0.267023
2.311000,-0.308429
2.312000,-0.327190
2.313000,-0.326867
2.314000,-0.356304
2.315000,-0.303576
2.316000,-0.288373
2.317000,-0.279962
2.318000,-0.280933
2.319000,-0.280933
2.320000,-0.278992
2.321000,-0.274140
2.322000,-0.268641
2.323000,-0.258936
2.324000,-0.246968
2.325000,-0.234675
2.326000,-0.226588
2.327000,-0.221736
2.328000,-0.217855
2.329000,-0.214943
2.330000,-0.212032
2.331000,-0.212032
2.332000,-0.212679
2.333000,-0.213326
2.334000,-0.218178
2.335000,-0.228853
2.336000,-0.236616
2.337000,-0.241792
2.338000,-0.241792
2.339000,-0.237910
2.340000,-0.231764
2.341000,-0.220766
2.342000,-0.210091
2.343000,-0.204915
2.344000,-0.201034
2.345000,-0.197152
2.346000,-0.194564
2.347000,-0.193270
2.348000,-0.193594
2.349000,-0.195534
2.350000,-0.197475
2.351000,-0.204592
2.352000,-0.215590
2.353000,-0.224001
2.354000,-0.227559
2.355000,-0.228206
2.356000,-0.224001
2.357000,-0.214943
2.358000,-0.205886
2.359000,-0.195858
2.360000,-0.191653
2.361000,-0.188418
2.362000,-0.185183
2.363000,-0.182919
2.364000,0.355350
2.365000,0.321061
2.366000,0.322355
2.367000,0.330442
2.368000,0.359232
2.369000,0.348234
2.370000,0.337882
2.371000,0.313945
2.372000,0.289361
2.373000,0.194581
2.374000,0.051280
2.375000,-0.109489
2.376000,-0.210415
2.377000,-0.266376
2.378000,-0.305194
2.379000,-0.321044
2.380000,-0.316839
2.381000,-0.288696
2.382000,-0.243086
2.383000,-0.193594
2.384000,-0.093962
2.385000,0.080717
2.386000,0.210432
2.387000,0.282567
2.388000,0.293242
2.389000,0.236633
2.390000,0.146059
2.391000,-0.009534
2.392000,-0.166745
2.393000,-0.245674
2.394000,-0.290961
2.395000,-0.320721
2.396000,-0.328808
2.397000,-0.318780
2.398000,-0.284491
2.399000,-0.233382
2.400000,-0.175155
2.401000,-0.049969
2.402000,0.122122
2.403000,0.240515
2.404000,0.286449
2.405000,0.282244
2.406000,0.215607
2.407000,0.077158
2.408000,-0.066790
2.409000,-0.211385
2.410000,-0.268641
2.411000,-0.307458
2.412000,-0.328161
2.413000,-0.327837
2.414000,-0.341100
2.415000,-0.300665
2.416000,-0.287079
2.417000,-0.279962
2.418000,-0.280933
2.419000,-0.280933
2.420000,-0.278992
2.421000,-0.273493
2.422000,-0.267994
2.423000,-0.258936
2.424000,-0.246321
2.425000,-0.234675
2.426000,-0.225942
2.427000,-0.221413
2.428000,-0.217208
2.429000,-0.214620
2.430000,-0.212679
2.431000,-0.212032
2.432000,-0.213002
2.433000,-0.213973
2.434000,-0.218825
2.435000,-0.229176
2.436000,-0.236293
2.437000,-0.241468
2.438000,-0.242439
2.439000,-0.237587
2.440000,-0.232088
2.441000,-0.220766
2.442000,-0.210091
2.443000,-0.204592
2.444000,-0.200710
2.445000,-0.197152
2.446000,-0.194888
2.447000,-0.193270
2.448000,-0.193270
2.449000,-0.195534
2.450000,-0.197152
2.451000,-0.204268
2.452000,-0.215914
2.453000,-0.223677
2.454000,-0.227235
2.455000,-0.228206
2.456000,-0.224001
2.457000,-0.215267
2.458000,-0.205239
2.459000,-0.196181
2.460000,-0.191653
2.461000,-0.188418
2.462000,-0.185183
2.463000,-0.183242
2.464000,0.345646
2.465000,0.318150
2.466000,0.322032
2.467000,0.332383
2.468000,0.359232
2.469000,0.344999
2.470000,0.340470
2.471000,0.316856
2.472000,0.286449
2.473000,0.189729
2.474000,0.045781
2.475000,-0.112400
2.476000,-0.213326
2.477000,-0.268964
2.478000,-0.304547
2.479000,-0.321044
2.480000,-0.317163
2.481000,-0.290961
2.482000,-0.241145
2.483000,-0.193270
2.484000,-0.089110
2.485000,0.084598
2.486000,0.214960
2.487000,0.285802
2.488000,0.290331
2.489000,0.235016
2.490000,0.143148
2.491000,-0.017621
2.492000,-0.169009
2.493000,-0.243086
2.494000,-0.291931
2.495000,-0.321368
2.496000,-0.327837
2.497000,-0.318456
2.498000,-0.284815
2.499000,-0.233058
2.500000,-0.173214
2.501000,-0.047381
2.502000,0.126327
2.503000,0.243750
2.504000,0.287096
2.505000,0.282891
2.506000,0.215284
2.507000,0.071983
2.508000,-0.070025
2.509000,-0.213649
2.510000,-0.270258
2.511000,-0.307135
2.512000,-0.326220
2.513000,-0.328161
2.514000,-0.331396
2.515000,-0.298401
2.516000,-0.285785
2.517000,-0.278992
2.518000,-0.280933
2.519000,-0.279962
2.520000,-0.278992
2.521000,-0.274463
2.522000,-0.267670
2.523000,-0.258936
2.524000,-0.245674
2.525000,-0.234028
2.526000,-0.226265
2.527000,-0.222060
2.528000,-0.217855
2.529000,-0.214296
2.530000,-0.212679
2.531000,-0.211708
2.532000,-0.212679
2.533000,-0.213649
2.534000,-0.219472
2.535000,-0.229500
2.536000,-0.237587
2.537000,-0.241792
2.538000,-0.241792
2.539000,-0.238234
2.540000,-0.231441
2.541000,-0.220119
2.542000,-0.209444
2.543000,-0.204915
2.544000,-0.200710
2.545000,-0.196828
2.546000,-0.194564
2.547000,-0.193270
2.548000,-0.192947
2.549000,-0.194888
2.550000,-0.197475
2.551000,-0.204915
2.552000,-0.216237
2.553000,-0.224001
2.554000,-0.227559
2.555000,-0.228206
2.556000,-0.223677
2.557000,-0.214296
2.558000,-0.205239
2.559000,-0.195858
2.560000,-0.191329
2.561000,-0.187771
2.562000,-0.185507
2.563000,-0.183242
2.564000,0.336912
2.565000,0.319768
2.566000,0.321061
2.567000,0.332707
2.568000,0.357938
2.569000,0.347910
2.570000,0.338206
2.571000,0.315239
2.572000,0.286126
2.573000,0.186171
2.574000,0.043517
2.575000,-0.116606
2.576000,-0.213326
2.577000,-0.268964
2.578000,-0.306488
2.579000,-0.321368
2.580000,-0.316516
2.581000,-0.289990
2.582000,-0.241792
2.583000,-0.191976
2.584000,-0.086846
2.585000,0.087833
2.586000,0.217225
2.587000,0.284832
2.588000,0.291625
2.589000,0.235340
2.590000,0.138296
2.591000,-0.022797
2.592000,-0.173214
2.593000,-0.248262
2.594000,-0.293225
2.595000,-0.323956
2.596000,-0.328161
2.597000,-0.317486
2.598000,-0.281580
2.599000,-0.231441
2.600000,-0.171274
2.601000,-0.041882
2.602000,0.127621
2.603000,0.244397
2.604000,0.289361
2.605000,0.282567
2.606000,0.213666
2.607000,0.068424
2.608000,-0.075200
2.609000,-0.215590
2.610000,-0.268641
2.611000,-0.308752
2.612000,-0.328161
2.613000,-0.327837
2.614000,-0.324603
2.615000,-0.296460
2.616000,-0.284168
2.617000,-0.278022
2.618000,-0.279962
2.619000,-0.279962
2.620000,-0.278345
2.621000,-0.273816
2.622000,-0.267994
2.623000,-0.257966
2.624000,-0.245350
2.625000,-0.234352
2.626000,-0.226265
2.627000,-0.221089
2.628000,-0.217531
2.629000,-0.214620
2.630000,-0.212032
2.631000,-0.211385
2.632000,-0.212679
2.633000,-0.213649
2.634000,-0.219148
2.635000,-0.229500
2.636000,-0.237263
2.637000,-0.241792
2.638000,-0.241792
2.639000,-0.237263
2.640000,-0.231117
2.641000,-0.219795
2.642000,-0.209121
2.643000,-0.204592
2.644000,-0.201034
2.645000,-0.196828
2.646000,-0.194888
2.647000,-0.193270
2.648000,-0.192947
2.649000,-0.194888
2.650000,-0.198446
2.651000,-0.204915
2.652000,-0.216237
2.653000,-0.223677
2.654000,-0.227235
2.655000,-0.227882
2.656000,-0.223677
2.657000,-0.214296
2.658000,-0.204915
2.659000,-0.195211
2.660000,-0.191006
2.661000,-0.188418
2.662000,-0.184860
2.663000,-0.182919
2.664000,0.331736
2.665000,0.318474
2.666000,0.323326
2.667000,0.332060
2.668000,0.359232
2.669000,0.346616
2.670000,0.337559
2.671000,0.313621
2.672000,0.283214
2.673000,0.185524
2.674000,0.040605
2.675000,-0.124046
2.676000,-0.214943
2.677000,-0.269935
2.678000,-0.308105
2.679000,-0.320074
2.680000,-0.315545
2.681000,-0.289020
2.682000,-0.238234
2.683000,-0.187771
2.684000,-0.082640
2.685000,0.091391
2.686000,0.220136
2.687000,0.288067
2.688000,0.290008
2.689000,0.233399
2.690000,0.132797
2.691000,-0.023120
2.692000,-0.173214
2.693000,-0.248262
2.694000,-0.293225
2.695000,-0.321691
2.696000,-0.325897
2.697000,-0.317486
2.698000,-0.281256
2.699000,-0.227882
2.700000,-0.169656
2.701000,-0.038647
2.702000,0.131179
2.703000,0.246985
2.704000,0.287743
2.705000,0.281274
2.706000,0.211726
2.707000,0.063896
2.708000,-0.079406
2.709000,-0.217208
2.710000,-0.269611
2.711000,-0.310693
2.712000,-0.327514
2.713000,-0.327514
2.714000,-0.319103
2.715000,-0.294196
2.716000,-0.283197
2.717000,-0.277375
2.718000,-0.279316
2.719000,-0.279639
2.720000,-0.278022
2.721000,-0.273493
2.722000,-0.267347
2.723000,-0.257319
2.724000,-0.245350
2.725000,-0.233382
2.726000,-0.226588
2.727000,-0.220766
2.728000,-0.216237
2.729000,-0.214296
2.730000,-0.212032
2.731000,-0.211708
2.732000,-0.212679
2.733000,-0.213649
2.734000,-0.219795
2.735000,-0.229823
2.736000,-0.237263
2.737000,-0.241468
2.738000,-0.241145
2.739000,-0.237587
2.740000,-0.230470
2.741000,-0.219795
2.742000,-0.209121
2.743000,-0.203621
2.744000,-0.200710
2.745000,-0.197152
2.746000,-0.194888
2.747000,-0.192623
2.748000,-0.194241
2.749000,-0.195211
2.750000,-0.197799
2.751000,-0.205239
2.752000,-0.215914
2.753000,-0.224324
2.754000,-0.227559
2.755000,-0.227882
2.756000,-0.223677
2.757000,-0.213649
2.758000,-0.204268
2.759000,-0.195534
2.760000,-0.191329
2.761000,-0.187771
2.762000,-0.184860
2.763000,-0.182919
2.764000,0.328502
2.765000,0.318474
2.766000,0.321385
2.767000,0.332060
2.768000,0.358909
2.769000,0.347263
2.770000,0.336265
2.771000,0.314268
2.772000,0.280627
2.773000,0.182289
2.774000,0.038341
2.775000,-0.125663
2.776000,-0.217208
2.777000,-0.270258
2.778000,-0.307782
2.779000,-0.322338
2.780000,-0.317810
2.781000,-0.285462
2.782000,-0.236616
2.783000,-0.187124
2.784000,-0.079406
2.785000,0.095273
2.786000,0.219813
2.787000,0.286126
2.788000,0.290331
2.789000,0.231458
2.790000,0.131503
2.791000,-0.027649
2.792000,-0.178067
2.793000,-0.247291
2.794000,-0.296136
2.795000,-0.324926
2.796000,-0.328808
2.797000,-0.316839
2.798000,-0.281256
2.799000,-0.227882
2.800000,-0.164804
2.801000,-0.036059
2.802000,0.134414
2.803000,0.248926
2.804000,0.289361
2.805000,0.280950
2.806000,0.210755
2.807000,0.059690
2.808000,-0.084258
2.809000,-0.218178
2.810000,-0.271552
2.811000,-0.311987
2.812000,-0.328484
2.813000,-0.325897
2.814000,-0.314898
2.815000,-0.292902
2.816000,-0.282227
2.817000,-0.276404
2.818000,-0.279316
2.819000,-0.279639
2.820000,-0.278022
2.821000,-0.273169
2.822000,-0.267023
2.823000,-0.256672
2.824000,-0.245027
2.825000,-0.233058
2.826000,-0.226265
2.827000,-0.220766
2.828000,-0.217208
2.829000,-0.213326
2.830000,-0.211385
2.831000,-0.212032
2.832000,-0.211708
2.833000,-0.213326
2.834000,-0.219472
2.835000,-0.229823
2.836000,-0.237587
2.837000,-0.241468
2.838000,-0.241145
2.839000,-0.237587
2.840000,-0.230147
2.841000,-0.219472
2.842000,-0.208797
2.843000,-0.203945
2.844000,-0.199416
2.845000,-0.196181
2.846000,-0.194564
2.847000,-0.193270
2.848000,-0.193270
2.849000,-0.195211
2.850000,-0.197799
2.851000,-0.205239
2.852000,-0.216884
2.853000,-0.224971
2.854000,-0.227559
2.855000,-0.227882
2.856000,-0.223677
2.857000,-0.213649
2.858000,-0.203945
2.859000,-0.194888
2.860000,-0.190682
2.861000,-0.187448
2.862000,-0.184860
2.863000,-0.183242
2.864000,0.324943
2.865000,0.318150
2.866000,0.321708
2.867000,0.331736
2.868000,0.357615
2.869000,0.347910
2.870000,0.335942
2.871000,0.311681
2.872000,0.277715
2.873000,0.181319
2.874000,0.034783
2.875000,-0.128898
2.876000,-0.219148
2.877000,-0.271876
2.878000,-0.306811
2.879000,-0.321368
2.880000,-0.317163
2.881000,-0.288373
2.882000,-0.232088
2.883000,-0.184536
2.884000,-0.080052
2.885000,0.098831
2.886000,0.224018
2.887000,0.287096
2.888000,0.288714
2.889000,0.229193
2.890000,0.125357
2.891000,-0.031207
2.892000,-0.179684
2.893000,-0.254408
2.894000,-0.294519
2.895000,-0.324603
2.896000,-0.328484
2.897000,-0.313928
2.898000,-0.279316
2.899000,-0.229823
2.900000,-0.165451
2.901000,-0.027325
2.902000,0.141531
2.903000,0.252160
2.904000,0.290978
2.905000,0.281274
2.906000,0.208167
2.907000,0.058073
2.908000,-0.086846
2.909000,-0.219472
2.910000,-0.273169
2.911000,-0.310693
2.912000,-0.330102
2.913000,-0.326867
2.914000,-0.310693
2.915000,-0.290637
2.916000,-0.281580
2.917000,-0.276081
2.918000,-0.278992
2.919000,-0.278992
2.920000,-0.277698
2.921000,-0.272846
2.922000,-0.266376
2.923000,-0.256349
2.924000,-0.244703
2.925000,-0.232735
2.926000,-0.225942
2.927000,-0.220766
2.928000,-0.216884
2.929000,-0.213649
2.930000,-0.211708
2.931000,-0.211385
2.932000,-0.212679
2.933000,-0.213973
2.934000,-0.218825
2.935000,-0.230470
2.936000,-0.236940
2.937000,-0.241468
2.938000,-0.241468
2.939000,-0.237587
2.940000,-0.229823
2.941000,-0.219472
2.942000,-0.209444
2.943000,-0.204268
2.944000,-0.200710
2.945000,-0.196828
2.946000,-0.194241
2.947000,-0.193594
2.948000,-0.193270
2.949000,-0.194564
2.950000,-0.197799
2.951000,-0.205886
2.952000,-0.216884
2.953000,-0.223677
2.954000,-0.227882
2.955000,-0.228529
2.956000,-0.223354
2.957000,-0.213649
2.958000,-0.204268
2.959000,-0.195211
2.960000,-0.191006
2.961000,-0.187771
2.962000,-0.184860
2.963000,-0.183242
2.964000,0.320738
2.965000,0.318474
2.966000,0.321385
2.967000,0.333677
2.968000,0.356321
2.969000,0.346940
2.970000,0.334971
2.971000,0.312328
2.972000,0.275127
2.973000,0.178731
2.974000,0.029607
2.975000,-0.132133
2.976000,-0.220766
2.977000,-0.272522
2.978000,-0.309399
2.979000,-0.320721
2.980000,-0.315545
2.981000,-0.286109
2.982000,-0.232411
2.983000,-0.183566
2.984000,-0.071319
2.985000,0.104331
2.986000,0.225959
2.987000,0.288390
2.988000,0.288067
2.989000,0.227576
2.990000,0.120505
2.991000,-0.033471
2.992000,-0.182272
2.993000,-0.253437
2.994000,-0.293225
2.995000,-0.323309
2.996000,-0.327837
2.997000,-0.313281
2.998000,-0.277375
2.999000,-0.225942
3.000000,-0.160922
3.001000,-0.020209
3.002000,0.140237
3.003000,0.251837
3.004000,0.289361
3.005000,0.279333
3.006000,0.204609
3.007000,0.053868
3.008000,-0.092345
3.009000,-0.219795
3.010000,-0.271552
3.011000,-0.313604
3.012000,-0.327837
3.013000,-0.327514
3.014000,-0.307135
3.015000,-0.289667
3.016000,-0.279639
3.017000,-0.275110
3.018000,-0.278345
3.019000,-0.278345
3.020000,-0.276728
3.021000,-0.272199
3.022000,-0.266376
3.023000,-0.256672
3.024000,-0.244056
3.025000,-0.232411
3.026000,-0.225295
3.027000,-0.220766
3.028000,-0.216561
3.029000,-0.213973
3.030000,-0.211708
3.031000,-0.211385
3.032000,-0.212679
3.033000,-0.213649
3.034000,-0.219795
3.035000,-0.230147
3.036000,-0.237910
3.037000,-0.240498
3.038000,-0.241792
3.039000,-0.236940
3.040000,-0.228853
3.041000,-0.219148
3.042000,-0.208797
3.043000,-0.203621
3.044000,-0.200387
3.045000,-0.196505
3.046000,-0.193917
3.047000,-0.193270
3.048000,-0.193594
3.049000,-0.195534
3.050000,-0.198446
3.051000,-0.206533
3.052000,-0.217208
3.053000,-0.224648
3.054000,-0.227235
3.055000,-0.227882
3.056000,-0.223030
3.057000,-0.213326
3.058000,-0.204268
3.059000,-0.194564
3.060000,-0.191653
3.061000,-0.187448
3.062000,-0.184536
3.063000,0.465333
3.064000,0.319121
3.065000,0.319121
3.066000,0.320091
3.067000,0.335295
3.068000,0.357938
3.069000,0.349204
3.070000,0.336265
3.071000,0.311034
3.072000,0.270922
3.073000,0.176143
3.074000,0.024755
3.075000,-0.135691
3.076000,-0.223677
3.077000,-0.272199
3.078000,-0.308105
3.079000,-0.321368
3.080000,-0.313928
3.081000,-0.283844
3.082000,-0.232735
3.083000,-0.182272
3.084000,-0.066466
3.085000,0.104007
3.086000,0.229517
3.087000,0.288390
3.088000,0.285479
3.089000,0.227576
3.090000,0.118240
3.091000,-0.039618
3.092000,-0.182272
3.093000,-0.256025
3.094000,-0.295813
3.095000,-0.325250
3.096000,-0.326867
3.097000,-0.311340
3.098000,-0.276404
3.099000,-0.225295
3.100000,-0.160922
3.101000,-0.015357
3.102000,0.143472
3.103000,0.252807
3.104000,0.287420
3.105000,0.280950
3.106000,0.202021
3.107000,0.051927
3.108000,-0.097844
3.109000,-0.218501
3.110000,-0.277051
3.111000,-0.315545
3.112000,-0.328484
3.113000,-0.371831
3.114000,-0.304547
3.115000,-0.287726
3.116000,-0.278992
3.117000,-0.274787
3.118000,-0.277698
3.119000,-0.278345
3.120000,-0.277051
3.121000,-0.271876
3.122000,-0.265406
3.123000,-0.256025
3.124000,-0.243733
3.125000,-0.232088
3.126000,-0.225295
3.127000,-0.220119
3.128000,-0.216561
3.129000,-0.213649
3.130000,-0.211385
3.131000,-0.211385
3.132000,-0.212679
3.133000,-0.213649
3.134000,-0.220442
3.135000,-0.230470
3.136000,-0.237587
3.137000,-0.241468
3.138000,-0.241792
3.139000,-0.237263
3.140000,-0.229500
3.141000,-0.218825
3.142000,-0.208797
3.143000,-0.203621
3.144000,-0.200063
3.145000,-0.196181
3.146000,-0.194241
3.147000,-0.193270
3.148000,-0.193594
3.149000,-0.195534
3.150000,-0.197475
3.151000,-0.206209
3.152000,-0.216884
3.153000,-0.224648
3.154000,-0.227559
3.155000,-0.228206
3.156000,-0.222707
3.157000,-0.213002
3.158000,-0.202974
3.159000,-0.194888
3.160000,-0.190682
3.161000,-0.187771
3.162000,-0.184536
3.163000,0.363761
3.164000,0.315562
3.165000,0.318150
3.166000,0.320091
3.167000,0.336265
3.168000,0.354703
3.169000,0.347910
3.170000,0.335295
3.171000,0.309740
3.172000,0.266717
3.173000,0.173555
3.174000,0.022490
3.175000,-0.140220
3.176000,-0.224001
3.177000,-0.274140
3.178000,-0.310370
3.179000,-0.322985
3.180000,-0.314898
3.181000,-0.283197
3.182000,-0.232088
3.183000,-0.180331
3.184000,-0.065819
3.185000,0.108212
3.186000,0.230487
3.187000,0.287420
3.188000,0.287096
3.189000,0.224665
3.190000,0.109506
3.191000,-0.041558
3.192000,-0.189712
3.193000,-0.256349
3.194000,-0.297754
3.195000,-0.323956
3.196000,-0.325573
3.197000,-0.309723
3.198000,-0.275110
3.199000,-0.225295
3.200000,-0.158981
3.201000,-0.009211
3.202000,0.147030
3.203000,0.255719
3.204000,0.287743
3.205000,0.280950
3.206000,0.198786
3.207000,0.048692
3.208000,-0.101402
3.209000,-0.220442
3.210000,-0.274787
3.211000,-0.311016
3.212000,-0.332043
3.213000,-0.349187
3.214000,-0.301636
3.215000,-0.286756
3.216000,-0.278669
3.217000,-0.275110
3.218000,-0.277375
3.219000,-0.278345
3.220000,-0.276728
3.221000,-0.271876
3.222000,-0.265729
3.223000,-0.256025
3.224000,-0.243409
3.225000,-0.231441
3.226000,-0.224971
3.227000,-0.220119
3.228000,-0.216237
3.229000,-0.213002
3.230000,-0.211708
3.231000,-0.211385
3.232000,-0.212355
3.233000,-0.213973
3.234000,-0.220119
3.235000,-0.230794
3.236000,-0.237910
3.237000,-0.240822
3.238000,-0.241792
3.239000,-0.236616
3.240000,-0.228529
3.241000,-0.218501
3.242000,-0.208150
3.243000,-0.203621
3.244000,-0.199093
3.245000,-0.196828
3.246000,-0.194241
3.247000,-0.192947
3.248000,-0.193594
3.249000,-0.195211
3.250000,-0.198446
3.251000,-0.207180
3.252000,-0.217531
3.253000,-0.224324
3.254000,-0.227559
3.255000,-0.228529
3.256000,-0.223030
3.257000,-0.212679
3.258000,-0.202651
3.259000,-0.194241
3.260000,-0.191006
3.261000,-0.187448
3.262000,-0.184536
3.263000,0.347263
3.264000,0.316533
3.265000,0.319121
3.266000,0.322032
3.267000,0.337882
3.268000,0.353086
3.269000,0.348881
3.270000,0.333354
3.271000,0.310063
3.272000,0.264453
3.273000,0.169997
3.274000,0.018285
3.275000,-0.142807
3.276000,-0.228206
3.277000,-0.275110
3.278000,-0.310370
3.279000,-0.321044
3.280000,-0.314575
3.281000,-0.283521
3.282000,-0.231764
3.283000,-0.179037
3.284000,-0.060320
3.285000,0.111447
3.286000,0.235016
3.287000,0.288390
3.288000,0.286449
3.289000,0.223047
3.290000,0.105301
3.291000,-0.045117
3.292000,-0.190682
3.293000,-0.257642
3.294000,-0.299695
3.295000,-0.326220
3.296000,-0.330425
3.297000,-0.312310
3.298000,-0.274787
3.299000,-0.222060
3.300000,-0.157364
3.301000,-0.004035
3.302000,0.148971
3.303000,0.257336
3.304000,0.288714
3.305000,0.279009
3.306000,0.200080
3.307000,0.044810
3.308000,-0.105607
3.309000,-0.222707
3.310000,-0.277698
3.311000,-0.315545
3.312000,-0.328484
3.313000,-0.336248
3.314000,-0.299048
3.315000,-0.285462
3.316000,-0.277698
3.317000,-0.273816
3.318000,-0.277698
3.319000,-0.278345
3.320000,-0.276404
3.321000,-0.271229
3.322000,-0.264759
3.323000,-0.255378
3.324000,-0.243086
3.325000,-0.231441
3.326000,-0.224648
3.327000,-0.220119
3.328000,-0.216237
3.329000,-0.213326
3.330000,-0.211385
3.331000,-0.210738
3.332000,-0.212679
3.333000,-0.214296
3.334000,-0.220119
3.335000,-0.229823
3.336000,-0.237910
3.337000,-0.240822
3.338000,-0.241468
3.339000,-0.236940
3.340000,-0.228529
3.341000,-0.217855
3.342000,-0.208150
3.343000,-0.203298
3.344000,-0.199416
3.345000,-0.196181
3.346000,-0.193917
3.347000,-0.192947
3.348000,-0.192947
3.349000,-0.195858
3.350000,-0.197799
3.351000,-0.207827
3.352000,-0.217208
3.353000,-0.224001
3.354000,-0.227559
3.355000,-0.227235
3.356000,-0.222060
3.357000,-0.212679
3.358000,-0.202651
3.359000,-0.194564
3.360000,-0.190359
3.361000,-0.187124
3.362000,-0.184213
3.363000,0.335295
3.364000,0.312975
3.365000,0.318150
3.366000,0.322355
3.367000,0.341117
3.368000,0.355997
3.369000,0.346616
3.370000,0.334001
3.371000,0.309416
3.372000,0.257336
3.373000,0.165145
3.374000,0.015697
3.375000,-0.146042
3.376000,-0.228206
3.377000,-0.276404
3.378000,-0.309399
3.379000,-0.319750
3.380000,-0.311987
3.381000,-0.280609
3.382000,-0.230470
3.383000,-0.176449
3.384000,-0.057409
3.385000,0.116299
3.386000,0.235987
3.387000,0.289361
3.388000,0.287096
3.389000,0.221753
3.390000,0.098184
3.391000,-0.048352
3.392000,-0.195858
3.393000,-0.259583
3.394000,-0.303576
3.395000,-0.324603
3.396000,-0.326220
3.397000,-0.307458
3.398000,-0.272522
3.399000,-0.220442
3.400000,-0.152512
3.401000,0.000494
3.402000,0.153176
3.403000,0.259600
3.404000,0.289037
3.405000,0.278686
3.406000,0.193287
3.407000,0.042546
3.408000,-0.109813
3.409000,-0.224648
3.410000,-0.278992
3.411000,-0.315869
3.412000,-0.333660
3.413000,-0.328484
3.414000,-0.296783
3.415000,-0.284491
3.416000,-0.277051
3.417000,-0.272846
3.418000,-0.277051
3.419000,-0.277698
3.420000,-0.276404
3.421000,-0.271552
3.422000,-0.264436
3.423000,-0.254731
3.424000,-0.242439
3.425000,-0.231117
3.426000,-0.224648
3.427000,-0.219795
3.428000,-0.215914
3.429000,-0.213002
3.430000,-0.211385
3.431000,-0.211061
3.432000,-0.212355
3.433000,-0.214296
3.434000,-0.219795
3.435000,-0.230470
3.436000,-0.237910
3.437000,-0.241145
3.438000,-0.241145
3.439000,-0.236940
3.440000,-0.227559
3.441000,-0.217855
3.442000,-0.208150
3.443000,-0.202651
3.444000,-0.199093
3.445000,-0.195534
3.446000,-0.193917
3.447000,-0.193270
3.448000,-0.193270
3.449000,-0.195534
3.450000,-0.198446
3.451000,-0.207503
3.452000,-0.217208
3.453000,-0.223354
3.454000,-0.227559
3.455000,-0.227559
3.456000,-0.222060
3.457000,-0.212355
3.458000,-0.202004
3.459000,-0.193917
3.460000,-0.191006
3.461000,-0.187124
3.462000,-0.184860
3.463000,0.326884
3.464000,0.311357
3.465000,0.319444
3.466000,0.321708
3.467000,0.341764
3.468000,0.353086
3.469000,0.347910
3.470000,0.332060
3.471000,0.307799
3.472000,0.258954
3.473000,0.167732
3.474000,0.011169
3.475000,-0.149277
3.476000,-0.229823
3.477000,-0.278022
3.478000,-0.310693
3.479000,-0.322662
3.480000,-0.312634
3.481000,-0.281256
3.482000,-0.229500
3.483000,-0.175155
3.484000,-0.055145
3.485000,0.118564
3.486000,0.239221
3.487000,0.290654
3.488000,0.286449
3.489000,0.222077
3.490000,0.093656
3.491000,-0.052557
3.492000,-0.199416
3.493000,-0.262171
3.494000,-0.304547
3.495000,-0.325897
3.496000,-0.327837
3.497000,-0.306488
3.498000,-0.272846
3.499000,-0.219795
3.500000,-0.152188
3.501000,0.009228
3.502000,0.154470
3.503000,0.259600
3.504000,0.290008
3.505000,0.276745
3.506000,0.191993
3.507000,0.041899
3.508000,-0.113047
3.509000,-0.225295
3.510000,-0.277698
3.511000,-0.313928
3.512000,-0.331396
3.513000,-0.321691
3.514000,-0.295166
3.515000,-0.282874
3.516000,-0.275757
3.517000,-0.274140
3.518000,-0.276728
3.519000,-0.277375
3.520000,-0.275757
3.521000,-0.270582
3.522000,-0.264436
3.523000,-0.255378
3.524000,-0.242115
3.525000,-0.230147
3.526000,-0.224648
3.527000,-0.219472
3.528000,-0.215590
3.529000,-0.212679
3.530000,-0.211061
3.531000,-0.211385
3.532000,-0.212032
3.533000,-0.213973
3.534000,-0.220442
3.535000,-0.231117
3.536000,-0.237910
3.537000,-0.241468
3.538000,-0.241145
3.539000,-0.236293
3.540000,-0.227882
3.541000,-0.217855
3.542000,-0.207503
3.543000,-0.202974
3.544000,-0.199093
3.545000,-0.195858
3.546000,-0.193594
3.547000,-0.192623
3.548000,-0.193917
3.549000,-0.195211
3.550000,-0.198122
3.551000,-0.208150
3.552000,-0.217855
3.553000,-0.224971
3.554000,-0.227559
3.555000,-0.227559
3.556000,-0.222383
3.557000,-0.211385
3.558000,-0.201357
3.559000,-0.193917
3.560000,-0.190359
3.561000,-0.186801
3.562000,-0.184213
3.563000,0.323002
3.564000,0.311357
3.565000,0.320738
3.566000,0.322032
3.567000,0.342411
3.568000,0.353409
3.569000,0.348234
3.570000,0.333354
3.571000,0.309093
3.572000,0.257983
3.573000,0.161586
3.574000,0.005346
3.575000,-0.151865
3.576000,-0.234999
3.577000,-0.276728
3.578000,-0.312634
3.579000,-0.321691
3.580000,-0.313604
3.581000,-0.281256
3.582000,-0.229176
3.583000,-0.172567
3.584000,-0.050616
3.585000,0.121798
3.586000,0.240515
3.587000,0.290331
3.588000,0.285802
3.589000,0.218842
3.590000,0.089451
3.591000,-0.056115
3.592000,-0.201681
3.593000,-0.264436
3.594000,-0.303576
3.595000,-0.328484
3.596000,-0.325250
3.597000,-0.305194
3.598000,-0.269935
3.599000,-0.218178
3.600000,-0.150894
3.601000,0.015050
3.602000,0.158352
3.603000,0.260894
3.604000,0.290008
3.605000,0.274157
3.606000,0.183906
3.607000,0.039635
3.608000,-0.117576
3.609000,-0.223354
3.610000,-0.280609
3.611000,-0.315869
3.612000,-0.330102
3.613000,-0.316839
3.614000,-0.292902
3.615000,-0.281580
3.616000,-0.274787
3.617000,-0.273169
3.618000,-0.276404
3.619000,-0.277051
3.620000,-0.275434
3.621000,-0.270582
3.622000,-0.263789
3.623000,-0.254084
3.624000,-0.241468
3.625000,-0.230147
3.626000,-0.223354
3.627000,-0.218825
3.628000,-0.215914
3.629000,-0.213002
3.630000,-0.210415
3.631000,-0.211061
3.632000,-0.212679
3.633000,-0.213973
3.634000,-0.220442
3.635000,-0.231117
3.636000,-0.238557
3.637000,-0.241145
3.638000,-0.240498
3.639000,-0.236293
3.640000,-0.226912
3.641000,-0.217208
3.642000,-0.207180
3.643000,-0.202651
3.644000,-0.198446
3.645000,-0.196181
3.646000,-0.193917
3.647000,-0.192623
3.648000,-0.193270
3.649000,-0.195534
3.650000,-0.198122
3.651000,-0.208474
3.652000,-0.217855
3.653000,-0.224324
3.654000,-0.227882
3.655000,-0.227559
3.656000,-0.221736
3.657000,-0.212355
3.658000,-0.202328
3.659000,-0.194241
3.660000,-0.190682
3.661000,-0.187124
3.662000,-0.184213
3.663000,0.317503
3.664000,0.307152
3.665000,0.318797
3.666000,0.321708
3.667000,0.348881
3.668000,0.355350
3.669000,0.348557
3.670000,0.331089
3.671000,0.308446
3.672000,0.252807
3.673000,0.158028
3.674000,0.003405
3.675000,-0.155100
3.676000,-0.234352
3.677000,-0.279639
3.678000,-0.311987
3.679000,-0.322338
3.680000,-0.313604
3.681000,-0.276404
3.682000,-0.229823
3.683000,-0.170950
3.684000,-0.048028
3.685000,0.125033
3.686000,0.244720
3.687000,0.291301
3.688000,0.287743
3.689000,0.220460
3.690000,0.084598
3.691000,-0.061291
3.692000,-0.206533
3.693000,-0.264436
3.694000,-0.307135
3.695000,-0.324926
3.696000,-0.326543
3.697000,-0.304223
3.698000,-0.268641
3.699000,-0.216884
3.700000,-0.148307
3.701000,0.018609
3.702000,0.162880
3.703000,0.262512
3.704000,0.288714
3.705000,0.276745
3.706000,0.183583
3.707000,0.034783
3.708000,-0.122428
3.709000,-0.228206
3.710000,-0.282227
3.711000,-0.315545
3.712000,-0.332366
3.713000,-0.311987
3.714000,-0.290961
3.715000,-0.280609
3.716000,-0.274140
3.717000,-0.272522
3.718000,-0.276081
3.719000,-0.277698
3.720000,-0.274463
3.721000,-0.270582
3.722000,-0.263142
3.723000,-0.254084
3.724000,-0.241468
3.725000,-0.230470
3.726000,-0.223677
3.727000,-0.219148
3.728000,-0.215590
3.729000,-0.212679
3.730000,-0.211061
3.731000,-0.210738
3.732000,-0.211708
3.733000,-0.214296
3.734000,-0.220442
3.735000,-0.231117
3.736000,-0.238234
3.737000,-0.241145
3.738000,-0.240822
3.739000,-0.236616
3.740000,-0.226912
3.741000,-0.216561
3.742000,-0.206856
3.743000,-0.202974
3.744000,-0.198769
3.745000,-0.196181
3.746000,-0.194241
3.747000,-0.192623
3.748000,-0.193917
3.749000,-0.194888
3.750000,-0.198122
3.751000,-0.208797
3.752000,-0.217855
3.753000,-0.224648
3.754000,-0.227559
3.755000,-0.227559
3.756000,-0.221413
3.757000,-0.212032
3.758000,-0.201357
3.759000,-0.194241
3.760000,-0.190359
3.761000,-0.187448
3.762000,-0.183889
3.763000,0.314592
3.764000,0.310063
3.765000,0.318797
3.766000,0.319768
3.767000,0.345969
3.768000,0.351792
3.769000,0.346940
3.770000,0.330766
3.771000,0.306828
3.772000,0.251190
3.773000,0.156087
3.774000,-0.004682
3.775000,-0.158981
3.776000,-0.236293
3.777000,-0.281256
3.778000,-0.311987
3.779000,-0.322662
3.780000,-0.312310
3.781000,-0.278022
3.782000,-0.226265
3.783000,-0.170950
3.784000,-0.047381
3.785000,0.126974
3.786000,0.248279
3.787000,0.290008
3.788000,0.284508
3.789000,0.216578
3.790000,0.078452
3.791000,-0.064525
3.792000,-0.207827
3.793000,-0.265082
3.794000,-0.306811
3.795000,-0.327837
3.796000,-0.327190
3.797000,-0.303253
3.798000,-0.267347
3.799000,-0.214943
3.800000,-0.146366
3.801000,0.025078
3.802000,0.165145
3.803000,0.266394
3.804000,0.287420
3.805000,0.272863
3.806000,0.178407
3.807000,0.034136
3.808000,-0.126310
3.809000,-0.228529
3.810000,-0.280933
3.811000,-0.319103
3.812000,-0.331072
3.813000,-0.309076
3.814000,-0.289990
3.815000,-0.280609
3.816000,-0.273493
3.817000,-0.271876
3.818000,-0.275757
3.819000,-0.276404
3.820000,-0.274787
3.821000,-0.270258
3.822000,-0.263142
3.823000,-0.253437
3.824000,-0.241468
3.825000,-0.229823
3.826000,-0.223354
3.827000,-0.219472
3.828000,-0.215590
3.829000,-0.212355
3.830000,-0.211061
3.831000,-0.210738
3.832000,-0.212032
3.833000,-0.213973
3.834000,-0.220442
3.835000,-0.231117
3.836000,-0.238557
3.837000,-0.241145
3.838000,-0.240822
3.839000,-0.235969
3.840000,-0.226265
3.841000,-0.216237
3.842000,-0.206856
3.843000,-0.202651
3.844000,-0.198769
3.845000,-0.195858
3.846000,-0.193594
3.847000,-0.192623
3.848000,-0.193270
3.849000,-0.195534
3.850000,-0.198122
3.851000,-0.209444
3.852000,-0.218178
3.853000,-0.224971
3.854000,-0.227559
3.855000,-0.227559
3.856000,-0.220766
3.857000,-0.211708
3.858000,-0.201034
3.859000,-0.193917
3.860000,-0.190035
3.861000,-0.186801
3.862000,-0.183889
3.863000,0.311357
3.864000,0.305211
3.865000,0.319768
3.866000,0.323002
3.867000,0.349204
3.868000,0.350175
3.869000,0.347587
3.870000,0.328502
3.871000,0.307475
3.872000,0.247632
3.873000,0.152852
3.874000,-0.005976
3.875000,-0.160275
3.876000,-0.237910
3.877000,-0.282227
3.878000,-0.314898
3.879000,-0.321691
3.880000,-0.311340
3.881000,-0.277375
3.882000,-0.227235
3.883000,-0.166745
3.884000,-0.038647
3.885000,0.132150
3.886000,0.249249
3.887000,0.291625
3.888000,0.285802
3.889000,0.214960
3.890000,0.074894
3.891000,-0.069054
3.892000,-0.211708
3.893000,-0.266053
3.894000,-0.306164
3.895000,-0.326867
3.896000,-0.324926
3.897000,-0.303253
3.898000,-0.267994
3.899000,-0.213326
3.900000,-0.144425
3.901000,0.030254
3.902000,0.169673
3.903000,0.267687
3.904000,0.288714
3.905000,0.270922
3.906000,0.174525
3.907000,0.029930
3.908000,-0.130515
3.909000,-0.227559
3.910000,-0.283197
3.911000,-0.318780
3.912000,-0.333013
3.913000,-0.305517
3.914000,-0.288373
3.915000,-0.278669
3.916000,-0.272522
3.917000,-0.272199
3.918000,-0.274787
3.919000,-0.277051
3.920000,-0.275434
3.921000,-0.269935
3.922000,-0.262818
3.923000,-0.253437
3.924000,-0.240498
3.925000,-0.229500
3.926000,-0.223354
3.927000,-0.219148
3.928000,-0.215267
3.929000,-0.212679
3.930000,-0.210738
3.931000,-0.211061
3.932000,-0.211708
3.933000,-0.214296
3.934000,-0.220766
3.935000,-0.231441
3.936000,-0.238234
3.937000,-0.241468
3.938000,-0.240822
3.939000,-0.236293
3.940000,-0.225942
3.941000,-0.216884
3.942000,-0.206856
3.943000,-0.202004
3.944000,-0.198769
3.945000,-0.195858
3.946000,-0.193594
3.947000,-0.192947
3.948000,-0.193270
3.949000,-0.195211
3.950000,-0.198446
3.951000,-0.209444
3.952000,-0.218825
3.953000,-0.224648
3.954000,-0.227235
3.955000,-0.227235
3.956000,-0.220442
3.957000,-0.211385
3.958000,-0.200387
3.959000,-0.193594
3.960000,-0.190359
3.961000,-0.186477
3.962000,0.388022
3.963000,0.306828
3.964000,0.305211
3.965000,0.321061
3.966000,0.322032
3.967000,0.349204
3.968000,0.353409
3.969000,0.343382
3.970000,0.329795
3.971000,0.306828
3.972000,0.243103
3.973000,0.150588
3.974000,-0.009858
3.975000,-0.161893
3.976000,-0.240175
3.977000,-0.284815
3.978000,-0.312310
3.979000,-0.322985
3.980000,-0.310370
3.981000,-0.276404
3.982000,-0.224324
3.983000,-0.163834
3.984000,-0.035089
3.985000,0.134738
3.986000,0.249896
3.987000,0.291301
3.988000,0.285802
3.989000,0.213990
3.990000,0.071983
3.991000,-0.074230
3.992000,-0.215590
3.993000,-0.266053
3.994000,-0.309399
3.995000,-0.326220
3.996000,-0.325250
3.997000,-0.302930
3.998000,-0.266700
3.999000,-0.212355
4.000000,-0.142160
4.001000,0.035753
4.002000,0.171291
4.003000,0.268981
4.004000,0.289361
4.005000,0.269305
4.006000,0.172261
4.007000,0.027666
4.008000,-0.135367
4.009000,-0.231117
4.010000,-0.284168
4.011000,-0.319103
4.012000,-0.359538
4.013000,-0.302930
4.014000,-0.286432
4.015000,-0.277375
4.016000,-0.271876
4.017000,-0.271229
4.018000,-0.275110
4.019000,-0.276081
4.020000,-0.275110
4.021000,-0.270582
4.022000,-0.262495
4.023000,-0.252790
4.024000,-0.240822
4.025000,-0.229500
4.026000,-0.223030
4.027000,-0.218825
4.028000,-0.214943
4.029000,-0.212679
4.030000,-0.210415
4.031000,-0.210738
4.032000,-0.212032
4.033000,-0.214296
4.034000,-0.220766
4.035000,-0.231441
4.036000,-0.238557
4.037000,-0.241468
4.038000,-0.240822
4.039000,-0.235646
4.040000,-0.224648
4.041000,-0.215267
4.042000,-0.206533
4.043000,-0.202004
4.044000,-0.198446
4.045000,-0.195534
4.046000,-0.193594
4.047000,-0.192947
4.048000,-0.193594
4.049000,-0.195534
4.050000,-0.198446
4.051000,-0.209444
4.052000,-0.218825
4.053000,-0.225295
4.054000,-0.227882
4.055000,-0.226912
4.056000,-0.220442
4.057000,-0.211061
4.058000,-0.200387
4.059000,-0.193594
4.060000,-0.189712
4.061000,-0.186477
4.062000,0.355997
4.063000,0.303594
4.064000,0.304564
4.065000,0.318474
4.066000,0.322679
4.067000,0.351145
4.068000,0.353086
4.069000,0.344999
4.070000,0.326884
4.071000,0.304888
4.072000,0.242133
4.073000,0.145412
4.074000,-0.016004
4.075000,-0.166421
4.076000,-0.240498
4.077000,-0.285138
4.078000,-0.313928
4.079000,-0.317163
4.080000,-0.307458
4.081000,-0.273169
4.082000,-0.222707
4.083000,-0.162216
4.084000,-0.029266
4.085000,0.137972
4.086000,0.253454
4.087000,0.290978
4.088000,0.283214
4.089000,0.214313
4.090000,0.068748
4.091000,-0.076494
4.092000,-0.213973
4.093000,-0.270258
4.094000,-0.307135
4.095000,-0.327514
4.096000,-0.325573
4.097000,-0.302606
4.098000,-0.265406
4.099000,-0.211708
4.100000,-0.141190
4.101000,0.040282
4.102000,0.175819
4.103000,0.272540
4.104000,0.290008
4.105000,0.264776
4.106000,0.169997
4.107000,0.022490
4.108000,-0.139573
4.109000,-0.231117
4.110000,-0.285138
4.111000,-0.321368
4.112000,-0.343041
4.113000,-0.300342
4.114000,-0.285138
4.115000,-0.277051
4.116000,-0.271552
4.117000,-0.271229
4.118000,-0.275110
4.119000,-0.276081
4.120000,-0.274140
4.121000,-0.269611
4.122000,-0.262171
4.123000,-0.252467
4.124000,-0.239528
4.125000,-0.229823
4.126000,-0.223030
4.127000,-0.218825
4.128000,-0.214943
4.129000,-0.212032
4.130000,-0.210738
4.131000,-0.210738
4.132000,-0.211708
4.133000,-0.214296
4.134000,-0.222060
4.135000,-0.231764
4.136000,-0.239204
4.137000,-0.241792
4.138000,-0.241468
4.139000,-0.235646
4.140000,-0.225295
4.141000,-0.215590
4.142000,-0.206209
4.143000,-0.201681
4.144000,-0.198446
4.145000,-0.195858
4.146000,-0.193270
4.147000,-0.192947
4.148000,-0.193594
4.149000,-0.195534
4.150000,-0.198446
4.151000,-0.209768
4.152000,-0.219148
4.153000,-0.224971
4.154000,-0.227559
4.155000,-0.227235
4.156000,-0.220119
4.157000,-0.210738
4.158000,-0.200387
4.159000,-0.193917
4.160000,-0.189712
4.161000,-0.186477
4.162000,0.339823
4.163000,0.301006
4.164000,0.302300
4.165000,0.318797
4.166000,0.322355
4.167000,0.350175
4.168000,0.349851
4.169000,0.346616
4.170000,0.325590
4.171000,0.305211
4.172000,0.241809
4.173000,0.138296
4.174000,-0.018268
4.175000,-0.170303
4.176000,-0.240498
4.177000,-0.282550
4.178000,-0.315222
4.179000,-0.320397
4.180000,-0.308105
4.181000,-0.273816
4.182000,-0.222707
4.183000,-0.159305
4.184000,-0.021503
4.185000,0.143148
4.186000,0.257336
4.187000,0.292595
4.188000,0.283538
4.189000,0.213019
4.190000,0.061955
4.191000,-0.083287
4.192000,-0.214296
4.193000,-0.268641
4.194000,-0.310693
4.195000,-0.330425
4.196000,-0.327190
4.197000,-0.304547
4.198000,-0.262818
4.199000,-0.210091
4.200000,-0.139573
4.201000,0.043193
4.202000,0.180672
4.203000,0.270599
4.204000,0.287420
4.205000,0.263159
4.206000,0.166762
4.207000,0.020226
4.208000,-0.143454
4.209000,-0.233705
4.210000,-0.285785
4.211000,-0.321044
4.212000,-0.332366
4.213000,-0.297107
4.214000,-0.283521
4.215000,-0.276081
4.216000,-0.270582
4.217000,-0.270905
4.218000,-0.274463
4.219000,-0.276081
4.220000,-0.273493
4.221000,-0.269288
4.222000,-0.261848
4.223000,-0.251820
4.224000,-0.239851
4.225000,-0.228529
4.226000,-0.223354
4.227000,-0.218825
4.228000,-0.214620
4.229000,-0.211708
4.230000,-0.210738
4.231000,-0.210415
4.232000,-0.212355
4.233000,-0.213973
4.234000,-0.221736
4.235000,-0.231441
4.236000,-0.238557
4.237000,-0.241145
4.238000,-0.240822
4.239000,-0.235322
4.240000,-0.224971
4.241000,-0.214943
4.242000,-0.205886
4.243000,-0.202004
4.244000,-0.197475
4.245000,-0.195211
4.246000,-0.192623
4.247000,-0.191976
4.248000,-0.193594
4.249000,-0.195534
4.250000,-0.198122
4.251000,-0.210091
4.252000,-0.218825
4.253000,-0.225295
4.254000,-0.227559
4.255000,-0.226588
4.256000,-0.220119
4.257000,-0.210415
4.258000,-0.200063
4.259000,-0.193270
4.260000,-0.190035
4.261000,-0.186477
4.262000,0.329795
4.263000,0.299065
4.264000,0.302623
4.265000,0.318797
4.266000,0.323649
4.267000,0.350498
4.268000,0.352115
4.269000,0.344675
4.270000,0.326561
4.271000,0.304564
4.272000,0.241162
4.273000,0.134738
4.274000,-0.020856
4.275000,-0.170950
4.276000,-0.244056
4.277000,-0.286109
4.278000,-0.311987
4.279000,-0.321044
4.280000,-0.308429
4.281000,-0.271876
4.282000,-0.221089
4.283000,-0.158011
4.284000,-0.017621
4.285000,0.144442
4.286000,0.257013
4.287000,0.295507
4.288000,0.284508
4.289000,0.208814
4.290000,0.058720
4.291000,-0.087816
4.292000,-0.217855
4.293000,-0.271229
4.294000,-0.307782
4.295000,-0.326867
4.296000,-0.322985
4.297000,-0.301636
4.298000,-0.259907
4.299000,-0.208797
4.300000,-0.135691
4.301000,0.046428
4.302000,0.182936
4.303000,0.272540
4.304000,0.288067
4.305000,0.260894
4.306000,0.164498
4.307000,0.016021
4.308000,-0.147336
4.309000,-0.234999
4.310000,-0.288696
4.311000,-0.320721
4.312000,-0.324926
4.313000,-0.295489
4.314000,-0.282227
4.315000,-0.275110
4.316000,-0.270582
4.317000,-0.270258
4.318000,-0.274787
4.319000,-0.275757
4.320000,-0.273169
4.321000,-0.268964
4.322000,-0.261524
4.323000,-0.251173
4.324000,-0.239204
4.325000,-0.228529
4.326000,-0.222707
4.327000,-0.217855
4.328000,-0.214620
4.329000,-0.212355
4.330000,-0.210415
4.331000,-0.211061
4.332000,-0.211708
4.333000,-0.213973
4.334000,-0.222707
4.335000,-0.231764
4.336000,-0.239204
4.337000,-0.241145
4.338000,-0.240498
4.339000,-0.235646
4.340000,-0.224324
4.341000,-0.214620
4.342000,-0.205239
4.343000,-0.201681
4.344000,-0.197799
4.345000,-0.195534
4.346000,-0.193270
4.347000,-0.192623
4.348000,-0.193270
4.349000,-0.196181
4.350000,-0.198122
4.351000,-0.210738
4.352000,-0.219148
4.353000,-0.225618
4.354000,-0.227235
4.355000,-0.226588
4.356000,-0.219795
4.357000,-0.210415
4.358000,-0.199740
4.359000,-0.192947
4.360000,-0.189712
4.361000,-0.186477
4.362000,0.321708
4.363000,0.297124
4.364000,0.302300
4.365000,0.319121
4.366000,0.323649
4.367000,0.350822
4.368000,0.351145
4.369000,0.345322
4.370000,0.327208
4.371000,0.304888
4.372000,0.239221
4.373000,0.128268
4.374000,-0.024091
4.375000,-0.172891
4.376000,-0.245674
4.377000,-0.287403
4.378000,-0.313928
4.379000,-0.320074
4.380000,-0.305841
4.381000,-0.271876
4.382000,-0.218825
4.383000,-0.153482
4.384000,-0.014386
4.385000,0.148324
4.386000,0.258954
4.387000,0.292272
4.388000,0.281597
4.389000,0.204933
4.390000,0.056456
4.391000,-0.093639
4.392000,-0.218825
4.393000,-0.271876
4.394000,-0.311016
4.395000,-0.326867
4.396000,-0.324279
4.397000,-0.303576
4.398000,-0.258613
4.399000,-0.208150
4.400000,-0.131486
4.401000,0.050633
4.402000,0.187788
4.403000,0.273834
4.404000,0.287743
4.405000,0.258307
4.406000,0.160292
4.407000,0.013109
4.408000,-0.150247
4.409000,-0.236293
4.410000,-0.287726
4.411000,-0.322015
4.412000,-0.319427
4.413000,-0.293225
4.414000,-0.281256
4.415000,-0.274463
4.416000,-0.269288
4.417000,-0.269611
4.418000,-0.273816
4.419000,-0.275757
4.420000,-0.273169
4.421000,-0.268641
4.422000,-0.261201
4.423000,-0.250849
4.424000,-0.238881
4.425000,-0.228206
4.426000,-0.222383
4.427000,-0.218178
4.428000,-0.214620
4.429000,-0.212032
4.430000,-0.210415
4.431000,-0.211061
4.432000,-0.212355
4.433000,-0.213973
4.434000,-0.222060
4.435000,-0.232411
4.436000,-0.238881
4.437000,-0.241468
4.438000,-0.240498
4.439000,-0.234999
4.440000,-0.224648
4.441000,-0.214296
4.442000,-0.205562
4.443000,-0.201681
4.444000,-0.197799
4.445000,-0.195211
4.446000,-0.192947
4.447000,-0.192623
4.448000,-0.193594
4.449000,-0.195534
4.450000,-0.199093
4.451000,-0.210091
4.452000,-0.219148
4.453000,-0.225942
4.454000,-0.227882
4.455000,-0.225942
4.456000,-0.219472
4.457000,-0.210415
4.458000,-0.199093
4.459000,-0.192947
4.460000,-0.189712
4.461000,-0.185830
4.462000,0.315886
4.463000,0.295183
4.464000,0.301006
4.465000,0.317503
4.466000,0.324620
4.467000,0.351145
4.468000,0.353409
4.469000,0.345322
4.470000,0.326561
4.471000,0.303594
4.472000,0.236957
4.473000,0.124386
4.474000,-0.028619
4.475000,-0.176449
4.476000,-0.247291
4.477000,-0.287726
4.478000,-0.315222
4.479000,-0.319750
4.480000,-0.301959
4.481000,-0.269611
4.482000,-0.219148
4.483000,-0.152188
4.484000,-0.005652
4.485000,0.153499
4.486000,0.260571
4.487000,0.292595
4.488000,0.280303
4.489000,0.202992
4.490000,0.051927
4.491000,-0.097197
4.492000,-0.219472
4.493000,-0.271876
4.494000,-0.309723
4.495000,-0.327837
4.496000,-0.323309
4.497000,-0.298724
4.498000,-0.256995
4.499000,-0.206856
4.500000,-0.128898
4.501000,0.055485
4.502000,0.190376
4.503000,0.277715
4.504000,0.285479
4.505000,0.252484
4.506000,0.159645
4.507000,0.006640
4.508000,-0.154453
4.509000,-0.236293
4.510000,-0.289343
4.511000,-0.322015
4.512000,-0.314575
4.513000,-0.291608
4.514000,-0.280286
4.515000,-0.273493
4.516000,-0.268964
4.517000,-0.269611
4.518000,-0.273493
4.519000,-0.275110
4.520000,-0.272846
4.521000,-0.268641
4.522000,-0.260554
4.523000,-0.249879
4.524000,-0.238881
4.525000,-0.228206
4.526000,-0.222383
4.527000,-0.218178
4.528000,-0.214296
4.529000,-0.211708
4.530000,-0.210415
4.531000,-0.210091
4.532000,-0.211708
4.533000,-0.214943
4.534000,-0.222707
4.535000,-0.232088
4.536000,-0.238881
4.537000,-0.241145
4.538000,-0.239851
4.539000,-0.234675
4.540000,-0.224001
4.541000,-0.213973
4.542000,-0.205562
4.543000,-0.202328
4.544000,-0.197475
4.545000,-0.194564
4.546000,-0.193270
4.547000,-0.192300
4.548000,-0.193917
4.549000,-0.194888
4.550000,-0.198769
4.551000,-0.210415
4.552000,-0.219472
4.553000,-0.225942
4.554000,-0.227559
4.555000,-0.226265
4.556000,-0.219148
4.557000,-0.210415
4.558000,-0.199093
4.559000,-0.192947
4.560000,-0.189388
4.561000,-0.185830
4.562000,0.311034
4.563000,0.293889
4.564000,0.300682
4.565000,0.317503
4.566000,0.324620
4.567000,0.349851
4.568000,0.351469
4.569000,0.344028
4.570000,0.325590
4.571000,0.303594
4.572000,0.237927
4.573000,0.117917
4.574000,-0.032825
4.575000,-0.178390
4.576000,-0.245997
4.577000,-0.289990
4.578000,-0.313928
4.579000,-0.320721
4.580000,-0.304223
4.581000,-0.267994
4.582000,-0.215914
4.583000,-0.150247
4.584000,0.001141
4.585000,0.154470
4.586000,0.259600
4.587000,0.294536
4.588000,0.281597
4.589000,0.199433
4.590000,0.050957
4.591000,-0.100108
4.592000,-0.221089
4.593000,-0.275434
4.594000,-0.310693
4.595000,-0.327190
4.596000,-0.326867
4.597000,-0.298077
4.598000,-0.253114
4.599000,-0.203945
4.600000,-0.120487
4.601000,0.059367
4.602000,0.191023
4.603000,0.277715
4.604000,0.288067
4.605000,0.249573
4.606000,0.157705
4.607000,0.001788
4.608000,-0.157040
4.609000,-0.239528
4.610000,-0.288049
4.611000,-0.324926
4.612000,-0.310693
4.613000,-0.289343
4.614000,-0.278992
4.615000,-0.272199
4.616000,-0.268317
4.617000,-0.268964
4.618000,-0.273816
4.619000,-0.274787
4.620000,-0.272522
4.621000,-0.267994
4.622000,-0.260554
4.623000,-0.250202
4.624000,-0.238557
4.625000,-0.227559
4.626000,-0.221736
4.627000,-0.217531
4.628000,-0.214296
4.629000,-0.211385
4.630000,-0.210091
4.631000,-0.210415
4.632000,-0.212032
4.633000,-0.213973
4.634000,-0.223354
4.635000,-0.232088
4.636000,-0.238557
4.637000,-0.241468
4.638000,-0.239528
4.639000,-0.234028
4.640000,-0.224324
4.641000,-0.213326
4.642000,-0.205562
4.643000,-0.201034
4.644000,-0.197799
4.645000,-0.195211
4.646000,-0.192947
4.647000,-0.192623
4.648000,-0.194241
4.649000,-0.195858
4.650000,-0.199093
4.651000,-0.211385
4.652000,-0.219795
4.653000,-0.226265
4.654000,-0.227559
4.655000,-0.225618
4.656000,-0.219472
4.657000,-0.209768
4.658000,-0.198446
4.659000,-0.193594
4.660000,-0.189712
4.661000,-0.186154
4.662000,0.306505
4.663000,0.291301
4.664000,0.300035
4.665000,0.317503
4.666000,0.324296
4.667000,0.349204
4.668000,0.350175
4.669000,0.344352
4.670000,0.325267
4.671000,0.301976
4.672000,0.234046
4.673000,0.110477
4.674000,-0.035736
4.675000,-0.183566
4.676000,-0.249232
4.677000,-0.290314
4.678000,-0.315545
4.679000,-0.319750
4.680000,-0.300989
4.681000,-0.267347
4.682000,-0.216561
4.683000,-0.148630
4.684000,0.006316
4.685000,0.158999
4.686000,0.262512
4.687000,0.290978
4.688000,0.280303
4.689000,0.199757
4.690000,0.048369
4.691000,-0.106578
4.692000,-0.221413
4.693000,-0.275110
4.694000,-0.312957
4.695000,-0.328484
4.696000,-0.322985
4.697000,-0.297430
4.698000,-0.253437
4.699000,-0.203298
4.700000,-0.117900
4.701000,0.063249
4.702000,0.195228
4.703000,0.275774
4.704000,0.286773
4.705000,0.247308
4.706000,0.152205
4.707000,-0.003388
4.708000,-0.158981
4.709000,-0.245350
4.710000,-0.289667
4.711000,-0.321044
4.712000,-0.306811
4.713000,-0.287403
4.714000,-0.277698
4.715000,-0.271552
4.716000,-0.267670
4.717000,-0.268641
4.718000,-0.273169
4.719000,-0.275110
4.720000,-0.272199
4.721000,-0.267670
4.722000,-0.260230
4.723000,-0.248909
4.724000,-0.237910
4.725000,-0.227235
4.726000,-0.222060
4.727000,-0.217855
4.728000,-0.213973
4.729000,-0.211385
4.730000,-0.210415
4.731000,-0.210415
4.732000,-0.211708
4.733000,-0.214296
4.734000,-0.223677
4.735000,-0.232088
4.736000,-0.238881
4.737000,-0.240822
4.738000,-0.239851
4.739000,-0.234028
4.740000,-0.223354
4.741000,-0.213326
4.742000,-0.205886
4.743000,-0.201357
4.744000,-0.197152
4.745000,-0.194888
4.746000,-0.192947
4.747000,-0.192623
4.748000,-0.193594
4.749000,-0.195858
4.750000,-0.200063
4.751000,-0.211708
4.752000,-0.219795
4.753000,-0.225618
4.754000,-0.226912
4.755000,-0.225942
4.756000,-0.219148
4.757000,-0.209444
4.758000,-0.198446
4.759000,-0.192300
4.760000,-0.189712
4.761000,-0.186477
4.762000,0.301653
4.763000,0.291301
4.764000,0.300682
4.765000,0.318797
4.766000,0.326237
4.767000,0.348234
4.768000,0.350175
4.769000,0.344675
4.770000,0.325267
4.771000,0.301329
4.772000,0.233722
4.773000,0.107889
4.774000,-0.039941
4.775000,-0.185507
4.776000,-0.249879
4.777000,-0.293225
4.778000,-0.315869
4.779000,-0.319750
4.780000,-0.302283
4.781000,-0.267670
4.782000,-0.213002
4.783000,-0.146042
4.784000,0.014727
4.785000,0.160292
4.786000,0.263806
4.787000,0.291948
4.788000,0.278686
4.789000,0.192317
4.790000,0.046428
4.791000,-0.110783
4.792000,-0.223354
4.793000,-0.274140
4.794000,-0.312310
4.795000,-0.329131
4.796000,-0.325250
4.797000,-0.296783
4.798000,-0.252790
4.799000,-0.203621
4.800000,-0.113371
4.801000,0.065513
4.802000,0.198786
4.803000,0.277715
4.804000,0.288390
4.805000,0.242456
4.806000,0.150265
4.807000,-0.005005
4.808000,-0.163510
4.809000,-0.246644
4.810000,-0.290961
4.811000,-0.379918
4.812000,-0.303900
4.813000,-0.286432
4.814000,-0.275757
4.815000,-0.271229
4.816000,-0.267347
4.817000,-0.267994
4.818000,-0.273169
4.819000,-0.274463
4.820000,-0.271876
4.821000,-0.267670
4.822000,-0.259583
4.823000,-0.248909
4.824000,-0.237910
4.825000,-0.226912
4.826000,-0.221736
4.827000,-0.217531
4.828000,-0.213649
4.829000,-0.211708
4.830000,-0.210415
4.831000,-0.210415
4.832000,-0.211708
4.833000,-0.213973
4.834000,-0.223677
4.835000,-0.232735
4.836000,-0.238557
4.837000,-0.240822
4.838000,-0.240498
4.839000,-0.233705
4.840000,-0.223677
4.841000,-0.213002
4.842000,-0.204592
4.843000,-0.202004
4.844000,-0.197152
4.845000,-0.193594
4.846000,-0.192947
4.847000,-0.192947
4.848000,-0.193917
4.849000,-0.195211
4.850000,-0.199740
4.851000,-0.211385
4.852000,-0.220119
4.853000,-0.225942
4.854000,-0.227559
4.855000,-0.225295
4.856000,-0.219472
4.857000,-0.208474
4.858000,-0.198122
4.859000,-0.192623
4.860000,-0.188741
4.861000,0.369583
4.862000,0.299065
4.863000,0.286449
4.864000,0.299065
4.865000,0.318797
4.866000,0.327855
4.867000,0.347263
4.868000,0.350822
4.869000,0.344999
4.870000,0.324296
4.871000,0.301329
4.872000,0.231458
4.873000,0.102390
4.874000,-0.043823
4.875000,-0.188418
4.876000,-0.249232
4.877000,-0.292578
4.878000,-0.317486
4.879000,-0.319750
4.880000,-0.300665
4.881000,-0.265729
4.882000,-0.213973
4.883000,-0.144748
4.884000,0.018609
4.885000,0.163527
4.886000,0.266394
4.887000,0.291301
4.888000,0.278039
4.889000,0.189729
4.890000,0.040605
4.891000,-0.114988
4.892000,-0.222707
4.893000,-0.278022
4.894000,-0.313928
4.895000,-0.326220
4.896000,-0.326220
4.897000,-0.292902
4.898000,-0.252143
4.899000,-0.201034
4.900000,-0.110136
4.901000,0.069395
4.902000,0.201374
4.903000,0.277392
4.904000,0.288390
4.905000,0.241486
4.906000,0.148971
4.907000,-0.008564
4.908000,-0.167068
4.909000,-0.245997
4.910000,-0.291284
4.911000,-0.351128
4.912000,-0.300989
4.913000,-0.284491
4.914000,-0.275757
4.915000,-0.270258
4.916000,-0.267023
4.917000,-0.268317
4.918000,-0.272199
4.919000,-0.274463
4.920000,-0.272199
4.921000,-0.267670
4.922000,-0.259583
4.923000,-0.247938
4.924000,-0.237263
4.925000,-0.226588
4.926000,-0.221089
4.927000,-0.217531
4.928000,-0.213973
4.929000,-0.211061
4.930000,-0.210415
4.931000,-0.210091
4.932000,-0.211385
4.933000,-0.214296
4.934000,-0.224001
4.935000,-0.232411
4.936000,-0.239204
4.937000,-0.240822
4.938000,-0.239851
4.939000,-0.233382
4.940000,-0.223354
4.941000,-0.212679
4.942000,-0.205239
4.943000,-0.201034
4.944000,-0.197152
4.945000,-0.194888
4.946000,-0.192947
4.947000,-0.192300
4.948000,-0.193917
4.949000,-0.195858
4.950000,-0.200387
4.951000,-0.211385
4.952000,-0.220442
4.953000,-0.225618
4.954000,-0.227559
4.955000,-0.225295
4.956000,-0.218178
4.957000,-0.208797
4.958000,-0.197799
4.959000,-0.192300
4.960000,-0.188741
4.961000,0.345969
4.962000,0.292272
4.963000,0.282244
4.964000,0.300035
4.965000,0.315239
4.966000,0.327208
4.967000,0.349204
4.968000,0.350498
4.969000,0.340470
4.970000,0.323973
4.971000,0.300035
4.972000,0.230164
4.973000,0.096244
4.974000,-0.047381
4.975000,-0.192947
4.976000,-0.251173
4.977000,-0.292578
4.978000,-0.313928
4.979000,-0.319103
4.980000,-0.300018
4.981000,-0.264759
4.982000,-0.211061
4.983000,-0.142484
4.984000,0.023784
4.985000,0.165145
4.986000,0.268011
4.987000,0.290654
4.988000,0.275451
4.989000,0.186494
4.990000,0.040282
4.991000,-0.118223
4.992000,-0.223030
4.993000,-0.277051
4.994000,-0.317163
4.995000,-0.328484
4.996000,-0.323309
4.997000,-0.296783
4.998000,-0.248585
4.999000,-0.201357
